##TITLE=Spectrum
##JCAMP-DX=5.00 $$ chemotion-converter-app (1.4.0)
##DATA TYPE=SIZE EXCLUSION CHROMATOGRAPHY
##DATA CLASS=XYPOINTS
##ORIGIN=
##OWNER=
##XUNITS=G/MOL
##YUNITS=ARBITRARY UNITS
##LABEL=Vial   3: MS170_dia25 - 1
##COMMENTS=X:\Marvin Subarew\PAETMC Thiol-ene\MS170\2022-02-11 MS170_dialysis25.TXT
##MN= 2.693E+4
##MW= 3.094E+4
##D= 1.149E+0
##MP= 3.785E+4
##DETEC1=I2: RI Detector 1, RI Signal
##DETEC2=I2: UV Detector 1, UV Signal
##DETEC3=I2: Pump 1, Sample Pump Pressure
##COL1=PSS SDV 5µm
##COL2=PSS SDV 5µm
##COL3=PSS SDV 5µm
##IN_VOL= 50.000
##ELUENT=THF
##FLOW=  1.000
##TEMPERATURE= 35.000
##DATE=11/02/22
##TIME=12:19:36
##NO_DEC=2
##SOFTWARE=WINGPC
##VERSION=8#1
##OPERATOR=itcp-akt
##FIRSTX=1.64081E+3
##LASTX=6.49293E+4
##MINX=1640.81
##MAXX=64929.3
##MINY=0.00659928
##MAXY=2.58186
##NPOINTS=380
##FIRSTY=1.06498E-2
##XUNITS=G/MOL
##YUNITS=ARBITRARY UNITS
##XYPOINTS=(XY..XY)
1.64081E+3, 1.06498E-2
1.65681E+3, 1.18760E-2
1.67297E+3, 1.13640E-2
1.68928E+3, 1.16974E-2
1.70576E+3, 1.30112E-2
1.72239E+3, 1.32071E-2
1.73919E+3, 1.53974E-2
1.75615E+3, 1.44110E-2
1.77327E+3, 1.64577E-2
1.79057E+3, 1.70405E-2
1.80803E+3, 1.81306E-2
1.82566E+3, 1.73793E-2
1.84346E+3, 1.93995E-2
1.86144E+3, 1.92401E-2
1.87959E+3, 2.10539E-2
1.89792E+3, 2.27886E-2
1.91643E+3, 2.19696E-2
1.93512E+3, 2.60844E-2
1.95399E+3, 2.44792E-2
1.97305E+3, 2.60607E-2
1.99229E+3, 2.61055E-2
2.01172E+3, 2.60406E-2
2.03134E+3, 2.61621E-2
2.05115E+3, 2.74501E-2
2.07115E+3, 2.88205E-2
2.09135E+3, 2.93268E-2
2.11174E+3, 3.17519E-2
2.13234E+3, 2.99823E-2
2.15313E+3, 3.53672E-2
2.17413E+3, 3.27984E-2
2.19533E+3, 3.54168E-2
2.21674E+3, 3.59128E-2
2.23836E+3, 3.59696E-2
2.26018E+3, 3.79066E-2
2.28223E+3, 3.92813E-2
2.30448E+3, 4.03093E-2
2.32696E+3, 4.10434E-2
2.34965E+3, 4.28032E-2
2.37256E+3, 4.10547E-2
2.39570E+3, 4.57282E-2
2.41906E+3, 4.29118E-2
2.44265E+3, 4.64568E-2
2.46647E+3, 4.70521E-2
2.49053E+3, 4.74752E-2
2.51481E+3, 4.93988E-2
2.53934E+3, 5.07455E-2
2.56410E+3, 5.22077E-2
2.58911E+3, 5.41812E-2
2.61436E+3, 5.49382E-2
2.63985E+3, 5.43508E-2
2.66560E+3, 5.84931E-2
2.69159E+3, 5.96576E-2
2.71784E+3, 6.11910E-2
2.74434E+3, 6.16947E-2
2.77111E+3, 6.42372E-2
2.79813E+3, 6.77040E-2
2.82542E+3, 6.75164E-2
2.85297E+3, 7.16977E-2
2.88079E+3, 7.23784E-2
2.90889E+3, 7.64727E-2
2.93725E+3, 7.72299E-2
2.96590E+3, 8.01066E-2
2.99482E+3, 8.24555E-2
3.02403E+3, 8.49742E-2
3.05352E+3, 8.71004E-2
3.08330E+3, 9.02995E-2
3.11336E+3, 9.38131E-2
3.14373E+3, 9.66610E-2
3.17438E+3, 9.82572E-2
3.20534E+3, 9.97932E-2
3.23660E+3, 1.05621E-1
3.26816E+3, 1.06782E-1
3.30003E+3, 1.11226E-1
3.33222E+3, 1.14339E-1
3.36471E+3, 1.18380E-1
3.39752E+3, 1.21309E-1
3.43066E+3, 1.23624E-1
3.46411E+3, 1.25619E-1
3.49789E+3, 1.29040E-1
3.53201E+3, 1.29922E-1
3.56645E+3, 1.32566E-1
3.60123E+3, 1.34947E-1
3.63635E+3, 1.36945E-1
3.67181E+3, 1.38143E-1
3.70762E+3, 1.38354E-1
3.74378E+3, 1.40228E-1
3.78029E+3, 1.40923E-1
3.81715E+3, 1.42724E-1
3.85438E+3, 1.43812E-1
3.89196E+3, 1.44871E-1
3.92992E+3, 1.45180E-1
3.96824E+3, 1.45780E-1
4.00694E+3, 1.46237E-1
4.04602E+3, 1.47979E-1
4.08547E+3, 1.46438E-1
4.12532E+3, 1.47569E-1
4.16555E+3, 1.47007E-1
4.20617E+3, 1.47159E-1
4.24719E+3, 1.46709E-1
4.28861E+3, 1.46657E-1
4.33043E+3, 1.46672E-1
4.37266E+3, 1.47421E-1
4.41530E+3, 1.46883E-1
4.45836E+3, 1.47666E-1
4.50184E+3, 1.48883E-1
4.54574E+3, 1.49613E-1
4.59007E+3, 1.49186E-1
4.63483E+3, 1.49023E-1
4.68003E+3, 1.49601E-1
4.72567E+3, 1.50622E-1
4.77176E+3, 1.50714E-1
4.81829E+3, 1.51583E-1
4.86528E+3, 1.52621E-1
4.91272E+3, 1.54703E-1
4.96063E+3, 1.56173E-1
5.00901E+3, 1.59285E-1
5.05786E+3, 1.61418E-1
5.10718E+3, 1.63763E-1
5.15699E+3, 1.65191E-1
5.20728E+3, 1.67082E-1
5.25806E+3, 1.69598E-1
5.30934E+3, 1.72778E-1
5.36111E+3, 1.76368E-1
5.41339E+3, 1.78752E-1
5.46619E+3, 1.80928E-1
5.51949E+3, 1.84500E-1
5.57332E+3, 1.85291E-1
5.62767E+3, 1.88459E-1
5.68255E+3, 1.90773E-1
5.73797E+3, 1.94049E-1
5.79392E+3, 1.94876E-1
5.85043E+3, 1.96794E-1
5.90748E+3, 1.98324E-1
5.96509E+3, 2.01414E-1
6.02326E+3, 2.03150E-1
6.08200E+3, 2.04575E-1
6.14131E+3, 2.05943E-1
6.20120E+3, 2.08097E-1
6.26168E+3, 2.08911E-1
6.32274E+3, 2.11151E-1
6.38440E+3, 2.12672E-1
6.44666E+3, 2.14386E-1
6.50953E+3, 2.14271E-1
6.57301E+3, 2.17659E-1
6.63711E+3, 2.18490E-1
6.70184E+3, 2.22186E-1
6.76719E+3, 2.23425E-1
6.83319E+3, 2.26430E-1
6.89982E+3, 2.27560E-1
6.96711E+3, 2.30389E-1
7.03505E+3, 2.34460E-1
7.10366E+3, 2.35714E-1
7.17293E+3, 2.40009E-1
7.24289E+3, 2.42098E-1
7.31352E+3, 2.45972E-1
7.38484E+3, 2.48236E-1
7.45686E+3, 2.52925E-1
7.52958E+3, 2.54407E-1
7.60300E+3, 2.59572E-1
7.67715E+3, 2.62465E-1
7.75202E+3, 2.66193E-1
7.82761E+3, 2.70620E-1
7.90395E+3, 2.75286E-1
7.98103E+3, 2.78958E-1
8.05886E+3, 2.84120E-1
8.13745E+3, 2.88767E-1
8.21681E+3, 2.93030E-1
8.29694E+3, 2.97446E-1
8.37785E+3, 3.02470E-1
8.45955E+3, 3.07505E-1
8.54205E+3, 3.13544E-1
8.62535E+3, 3.19030E-1
8.70947E+3, 3.24631E-1
8.79440E+3, 3.31138E-1
8.88016E+3, 3.37557E-1
8.96676E+3, 3.44289E-1
9.05421E+3, 3.49596E-1
9.14250E+3, 3.56187E-1
9.23166E+3, 3.62663E-1
9.32169E+3, 3.70474E-1
9.41259E+3, 3.75850E-1
9.50439E+3, 3.82830E-1
9.59707E+3, 3.89391E-1
9.69066E+3, 3.97427E-1
9.78517E+3, 4.05241E-1
9.88059E+3, 4.13268E-1
9.97695E+3, 4.21842E-1
1.00742E+4, 4.29581E-1
1.01725E+4, 4.37887E-1
1.02717E+4, 4.44564E-1
1.03719E+4, 4.52214E-1
1.04730E+4, 4.60471E-1
1.05751E+4, 4.69107E-1
1.06783E+4, 4.77369E-1
1.07824E+4, 4.86024E-1
1.08876E+4, 4.95687E-1
1.09937E+4, 5.02742E-1
1.11009E+4, 5.12615E-1
1.12092E+4, 5.20066E-1
1.13185E+4, 5.31937E-1
1.14289E+4, 5.38327E-1
1.15403E+4, 5.49995E-1
1.16529E+4, 5.57563E-1
1.17665E+4, 5.67893E-1
1.18813E+4, 5.76768E-1
1.19971E+4, 5.86366E-1
1.21141E+4, 5.97463E-1
1.22323E+4, 6.06834E-1
1.23516E+4, 6.18852E-1
1.24720E+4, 6.32982E-1
1.25936E+4, 6.45058E-1
1.27165E+4, 6.55669E-1
1.28405E+4, 6.67721E-1
1.29657E+4, 6.78094E-1
1.30921E+4, 6.90339E-1
1.32198E+4, 7.00208E-1
1.33487E+4, 7.12475E-1
1.34789E+4, 7.24290E-1
1.36103E+4, 7.36088E-1
1.37431E+4, 7.48306E-1
1.38771E+4, 7.60956E-1
1.40124E+4, 7.75367E-1
1.41491E+4, 7.88274E-1
1.42871E+4, 8.03297E-1
1.44264E+4, 8.16909E-1
1.45671E+4, 8.30757E-1
1.47091E+4, 8.47044E-1
1.48526E+4, 8.61861E-1
1.49974E+4, 8.79632E-1
1.51437E+4, 8.95550E-1
1.52914E+4, 9.13533E-1
1.54405E+4, 9.30000E-1
1.55910E+4, 9.48658E-1
1.57431E+4, 9.66755E-1
1.58966E+4, 9.87340E-1
1.60516E+4, 1.00896E+0
1.62082E+4, 1.03000E+0
1.63662E+4, 1.05201E+0
1.65258E+4, 1.07480E+0
1.66870E+4, 1.09897E+0
1.68497E+4, 1.12403E+0
1.70141E+4, 1.15030E+0
1.71800E+4, 1.17781E+0
1.73475E+4, 1.20477E+0
1.75167E+4, 1.23476E+0
1.76875E+4, 1.26457E+0
1.78600E+4, 1.29627E+0
1.80342E+4, 1.32765E+0
1.82100E+4, 1.36043E+0
1.83876E+4, 1.39464E+0
1.85669E+4, 1.42915E+0
1.87480E+4, 1.46514E+0
1.89308E+4, 1.50148E+0
1.91155E+4, 1.53826E+0
1.93019E+4, 1.57512E+0
1.94901E+4, 1.61338E+0
1.96802E+4, 1.65284E+0
1.98721E+4, 1.69133E+0
2.00659E+4, 1.73099E+0
2.02616E+4, 1.77101E+0
2.04592E+4, 1.81085E+0
2.06587E+4, 1.85038E+0
2.08601E+4, 1.88954E+0
2.10636E+4, 1.92951E+0
2.12690E+4, 1.96887E+0
2.14764E+4, 2.00774E+0
2.16858E+4, 2.04637E+0
2.18973E+4, 2.08447E+0
2.21109E+4, 2.12271E+0
2.23265E+4, 2.15951E+0
2.25442E+4, 2.19484E+0
2.27641E+4, 2.22920E+0
2.29861E+4, 2.26269E+0
2.32102E+4, 2.29573E+0
2.34366E+4, 2.32743E+0
2.36651E+4, 2.36210E+0
2.38959E+4, 2.39896E+0
2.41289E+4, 2.42791E+0
2.43642E+4, 2.45237E+0
2.46018E+4, 2.47523E+0
2.48418E+4, 2.49652E+0
2.50840E+4, 2.51548E+0
2.53286E+4, 2.53267E+0
2.55756E+4, 2.54836E+0
2.58251E+4, 2.55999E+0
2.60769E+4, 2.57059E+0
2.63312E+4, 2.57737E+0
2.65880E+4, 2.58154E+0
2.68473E+4, 2.58186E+0
2.71091E+4, 2.57836E+0
2.73735E+4, 2.57269E+0
2.76404E+4, 2.56103E+0
2.79100E+4, 2.54655E+0
2.81821E+4, 2.52695E+0
2.84570E+4, 2.50444E+0
2.87345E+4, 2.47782E+0
2.90147E+4, 2.44694E+0
2.92977E+4, 2.41204E+0
2.95834E+4, 2.37295E+0
2.98719E+4, 2.32996E+0
3.01632E+4, 2.28244E+0
3.04573E+4, 2.22897E+0
3.07543E+4, 2.17344E+0
3.10543E+4, 2.11369E+0
3.13571E+4, 2.05005E+0
3.16629E+4, 1.98320E+0
3.19717E+4, 1.91149E+0
3.22835E+4, 1.84049E+0
3.25983E+4, 1.76322E+0
3.29162E+4, 1.68442E+0
3.32372E+4, 1.60422E+0
3.35613E+4, 1.52411E+0
3.38886E+4, 1.44504E+0
3.42191E+4, 1.36667E+0
3.45528E+4, 1.29011E+0
3.48898E+4, 1.22030E+0
3.52300E+4, 1.15346E+0
3.55736E+4, 1.09197E+0
3.59205E+4, 1.03414E+0
3.62708E+4, 9.79563E-1
3.66245E+4, 9.30634E-1
3.69817E+4, 8.81504E-1
3.73423E+4, 8.39637E-1
3.77065E+4, 7.98943E-1
3.80742E+4, 7.62187E-1
3.84455E+4, 7.28439E-1
3.88204E+4, 6.96178E-1
3.91990E+4, 6.67845E-1
3.95813E+4, 6.40973E-1
3.99673E+4, 6.14738E-1
4.03570E+4, 5.90719E-1
4.07506E+4, 5.67473E-1
4.11480E+4, 5.44820E-1
4.15493E+4, 5.23983E-1
4.19544E+4, 5.00503E-1
4.23636E+4, 4.80313E-1
4.27767E+4, 4.58104E-1
4.31939E+4, 4.37382E-1
4.36151E+4, 4.17241E-1
4.40404E+4, 3.94760E-1
4.44699E+4, 3.76066E-1
4.49036E+4, 3.53928E-1
4.53415E+4, 3.33784E-1
4.57837E+4, 3.13834E-1
4.62301E+4, 2.93852E-1
4.66810E+4, 2.74890E-1
4.71362E+4, 2.57228E-1
4.75959E+4, 2.37800E-1
4.80600E+4, 2.21367E-1
4.85287E+4, 2.05134E-1
4.90020E+4, 1.89332E-1
4.94798E+4, 1.75859E-1
4.99624E+4, 1.59805E-1
5.04496E+4, 1.48708E-1
5.09416E+4, 1.34609E-1
5.14384E+4, 1.22884E-1
5.19400E+4, 1.14145E-1
5.24465E+4, 1.01764E-1
5.29580E+4, 9.59618E-2
5.34744E+4, 8.58668E-2
5.39959E+4, 7.80349E-2
5.45225E+4, 7.14761E-2
5.50542E+4, 6.39899E-2
5.55911E+4, 5.78569E-2
5.61332E+4, 5.28524E-2
5.66806E+4, 4.71593E-2
5.72334E+4, 4.26785E-2
5.77915E+4, 3.91710E-2
5.83551E+4, 3.41935E-2
5.89242E+4, 3.24343E-2
5.94988E+4, 2.74128E-2
6.00790E+4, 2.43894E-2
6.06649E+4, 2.15602E-2
6.12565E+4, 1.59615E-2
6.18539E+4, 1.68636E-2
6.24571E+4, 1.38051E-2
6.30662E+4, 1.25617E-2
6.36812E+4, 1.09998E-2
6.43022E+4, 7.39125E-3
6.49293E+4, 6.59928E-3
##END=$$ End of the data block
