##TITLE=Spectrum
##JCAMP-DX=5.00 $$ chemotion-converter-app (1.1.0)
##DATA TYPE=SIZE EXCLUSION CHROMATOGRAPHY
##DATA CLASS=XYPOINTS
##ORIGIN=
##OWNER=
##XUNITS=MILLILITERS
##YUNITS=ARBITRARY UNITS
##LABEL=Vial   3: WX09P - 1
##COMMENTS=C:\Users\GPC\Desktop\THF-GPC\Laura\Xihao Wu\2023_05_31_XW09P.TXT
##MN= 2.848E+4
##MW= 5.945E+4
##D= 2.087E+0
##MP= 5.218E+4
##DETEC1=I1: RID 1, RI Signal
##DETEC2=I1: DAD 1, Signal A
##DETEC3=I1: DAD 1, Signal B
##COL1=PSS Novema Vors√§ule
##COL2=PSS Novema
##COL3=PSS Novema
##IN_VOL=100.000
##ELUENT=0,1 M NaCl + 0,1% TFA
##FLOW=  1.000
##TEMPERATURE= 40.000
##DATE=31.05.23
##TIME=11:28:00
##NO_DEC=1
##SOFTWARE=WINGPC
##VERSION=8#1
##OPERATOR=GPC
##FIRSTX=1.58360E+1
##LASTX=4.80803E+1
##MINX=15.836
##MAXX=48.0803
##MINY=0.0
##MAXY=36.7931
##NPOINTS=1942
##FIRSTY=0.00000E+0
##XUNITS=MILLILITERS
##YUNITS=ARBITRARY UNITS
##XYPOINTS=(XY..XY)
1.58360E+1, 0.00000E+0
1.58526E+1, 1.53493E-6
1.58692E+1, 0.00000E+0
1.58859E+1, 0.00000E+0
1.59025E+1, 0.00000E+0
1.59191E+1, 0.00000E+0
1.59357E+1, 0.00000E+0
1.59523E+1, 0.00000E+0
1.59689E+1, 0.00000E+0
1.59855E+1, 0.00000E+0
1.60021E+1, 0.00000E+0
1.60188E+1, 0.00000E+0
1.60354E+1, 0.00000E+0
1.60520E+1, 0.00000E+0
1.60686E+1, 0.00000E+0
1.60852E+1, 0.00000E+0
1.61018E+1, 0.00000E+0
1.61184E+1, 0.00000E+0
1.61350E+1, 0.00000E+0
1.61517E+1, 0.00000E+0
1.61683E+1, 0.00000E+0
1.61849E+1, 0.00000E+0
1.62015E+1, 0.00000E+0
1.62181E+1, 0.00000E+0
1.62347E+1, 1.45506E-5
1.62513E+1, 1.99679E-4
1.62679E+1, 6.29591E-4
1.62846E+1, 1.15647E-3
1.63012E+1, 1.94981E-3
1.63178E+1, 2.90085E-3
1.63344E+1, 3.81880E-3
1.63510E+1, 4.61570E-3
1.63676E+1, 5.15531E-3
1.63842E+1, 5.45053E-3
1.64008E+1, 5.78634E-3
1.64175E+1, 5.94614E-3
1.64341E+1, 6.16851E-3
1.64507E+1, 6.18550E-3
1.64673E+1, 6.35394E-3
1.64839E+1, 6.05411E-3
1.65005E+1, 5.92484E-3
1.65171E+1, 6.20607E-3
1.65337E+1, 6.76489E-3
1.65503E+1, 7.15005E-3
1.65670E+1, 7.35854E-3
1.65836E+1, 7.70330E-3
1.66002E+1, 7.88888E-3
1.66168E+1, 8.00537E-3
1.66334E+1, 8.14148E-3
1.66500E+1, 8.04259E-3
1.66666E+1, 8.26266E-3
1.66832E+1, 8.57581E-3
1.66999E+1, 8.67069E-3
1.67165E+1, 8.76894E-3
1.67331E+1, 8.66110E-3
1.67497E+1, 8.63993E-3
1.67663E+1, 8.55809E-3
1.67829E+1, 8.66546E-3
1.67995E+1, 8.73843E-3
1.68161E+1, 8.82338E-3
1.68328E+1, 9.09950E-3
1.68494E+1, 9.47453E-3
1.68660E+1, 9.96858E-3
1.68826E+1, 1.02469E-2
1.68992E+1, 1.04296E-2
1.69158E+1, 1.06298E-2
1.69324E+1, 1.06256E-2
1.69490E+1, 1.07871E-2
1.69657E+1, 1.06023E-2
1.69823E+1, 1.05789E-2
1.69989E+1, 1.06718E-2
1.70155E+1, 1.07576E-2
1.70321E+1, 1.07653E-2
1.70487E+1, 1.01920E-2
1.70653E+1, 9.92456E-3
1.70819E+1, 9.65558E-3
1.70985E+1, 9.84708E-3
1.71152E+1, 1.04128E-2
1.71318E+1, 1.09377E-2
1.71484E+1, 1.14269E-2
1.71650E+1, 1.13182E-2
1.71816E+1, 1.12525E-2
1.71982E+1, 1.14082E-2
1.72148E+1, 1.18187E-2
1.72314E+1, 1.23302E-2
1.72481E+1, 1.25820E-2
1.72647E+1, 1.27769E-2
1.72813E+1, 1.30923E-2
1.72979E+1, 1.28060E-2
1.73145E+1, 1.23651E-2
1.73311E+1, 1.20944E-2
1.73477E+1, 1.19120E-2
1.73643E+1, 1.15817E-2
1.73810E+1, 1.15526E-2
1.73976E+1, 1.13192E-2
1.74142E+1, 1.14181E-2
1.74308E+1, 1.19171E-2
1.74474E+1, 1.25577E-2
1.74640E+1, 1.33007E-2
1.74806E+1, 1.37631E-2
1.74972E+1, 1.42661E-2
1.75139E+1, 1.47525E-2
1.75305E+1, 1.52385E-2
1.75471E+1, 1.56382E-2
1.75637E+1, 1.55102E-2
1.75803E+1, 1.54927E-2
1.75969E+1, 1.50668E-2
1.76135E+1, 1.46766E-2
1.76301E+1, 1.43403E-2
1.76468E+1, 1.43430E-2
1.76634E+1, 1.45425E-2
1.76800E+1, 1.46257E-2
1.76966E+1, 1.48445E-2
1.77132E+1, 1.49267E-2
1.77298E+1, 1.50637E-2
1.77464E+1, 1.50851E-2
1.77630E+1, 1.48507E-2
1.77796E+1, 1.48427E-2
1.77963E+1, 1.46388E-2
1.78129E+1, 1.46705E-2
1.78295E+1, 1.45638E-2
1.78461E+1, 1.44249E-2
1.78627E+1, 1.43608E-2
1.78793E+1, 1.40871E-2
1.78959E+1, 1.39070E-2
1.79125E+1, 1.39675E-2
1.79292E+1, 1.33105E-2
1.79458E+1, 1.26528E-2
1.79624E+1, 1.28205E-2
1.79790E+1, 1.31436E-2
1.79956E+1, 1.34073E-2
1.80122E+1, 1.38567E-2
1.80288E+1, 1.35969E-2
1.80454E+1, 1.31081E-2
1.80621E+1, 1.24504E-2
1.80787E+1, 1.16021E-2
1.80953E+1, 1.11930E-2
1.81119E+1, 1.06909E-2
1.81285E+1, 1.03923E-2
1.81451E+1, 1.02655E-2
1.81617E+1, 1.03007E-2
1.81783E+1, 1.04709E-2
1.81950E+1, 1.06100E-2
1.82116E+1, 1.08217E-2
1.82282E+1, 1.07902E-2
1.82448E+1, 1.08943E-2
1.82614E+1, 1.09139E-2
1.82780E+1, 1.09091E-2
1.82946E+1, 1.11422E-2
1.83112E+1, 1.11848E-2
1.83279E+1, 1.12068E-2
1.83445E+1, 1.10993E-2
1.83611E+1, 1.11920E-2
1.83777E+1, 1.14449E-2
1.83943E+1, 1.16942E-2
1.84109E+1, 1.21114E-2
1.84275E+1, 1.22058E-2
1.84441E+1, 1.23748E-2
1.84607E+1, 1.25402E-2
1.84774E+1, 1.27978E-2
1.84940E+1, 1.30344E-2
1.85106E+1, 1.29353E-2
1.85272E+1, 1.30533E-2
1.85438E+1, 1.30564E-2
1.85604E+1, 1.29787E-2
1.85770E+1, 1.29215E-2
1.85936E+1, 1.29235E-2
1.86103E+1, 1.28936E-2
1.86269E+1, 1.27431E-2
1.86435E+1, 1.28444E-2
1.86601E+1, 1.29615E-2
1.86767E+1, 1.31781E-2
1.86933E+1, 1.34147E-2
1.87099E+1, 1.35142E-2
1.87265E+1, 1.37599E-2
1.87432E+1, 1.40047E-2
1.87598E+1, 1.41172E-2
1.87764E+1, 1.40596E-2
1.87930E+1, 1.40752E-2
1.88096E+1, 1.41924E-2
1.88262E+1, 1.44368E-2
1.88428E+1, 1.49533E-2
1.88594E+1, 1.54470E-2
1.88761E+1, 1.59138E-2
1.88927E+1, 1.61786E-2
1.89093E+1, 1.62897E-2
1.89259E+1, 1.64821E-2
1.89425E+1, 1.65455E-2
1.89591E+1, 1.67969E-2
1.89757E+1, 1.67291E-2
1.89923E+1, 1.64184E-2
1.90090E+1, 1.61983E-2
1.90256E+1, 1.60794E-2
1.90422E+1, 1.63918E-2
1.90588E+1, 1.67649E-2
1.90754E+1, 1.72433E-2
1.90920E+1, 1.75506E-2
1.91086E+1, 1.77463E-2
1.91252E+1, 1.79867E-2
1.91418E+1, 1.79166E-2
1.91585E+1, 1.79681E-2
1.91751E+1, 1.81410E-2
1.91917E+1, 1.79365E-2
1.92083E+1, 1.76797E-2
1.92249E+1, 1.77914E-2
1.92415E+1, 1.80586E-2
1.92581E+1, 1.80265E-2
1.92747E+1, 1.79705E-2
1.92914E+1, 1.78445E-2
1.93080E+1, 1.78159E-2
1.93246E+1, 1.80671E-2
1.93412E+1, 1.82940E-2
1.93578E+1, 1.85375E-2
1.93744E+1, 1.85590E-2
1.93910E+1, 1.87887E-2
1.94076E+1, 1.94218E-2
1.94243E+1, 2.03203E-2
1.94409E+1, 2.14650E-2
1.94575E+1, 2.27724E-2
1.94741E+1, 2.41493E-2
1.94907E+1, 2.54480E-2
1.95073E+1, 2.65376E-2
1.95239E+1, 2.73326E-2
1.95405E+1, 2.80167E-2
1.95572E+1, 2.87924E-2
1.95738E+1, 2.98433E-2
1.95904E+1, 3.11691E-2
1.96070E+1, 3.27477E-2
1.96236E+1, 3.42133E-2
1.96402E+1, 3.53986E-2
1.96568E+1, 3.65629E-2
1.96734E+1, 3.75294E-2
1.96900E+1, 3.87589E-2
1.97067E+1, 4.03697E-2
1.97233E+1, 4.24793E-2
1.97399E+1, 4.48432E-2
1.97565E+1, 4.71456E-2
1.97731E+1, 4.95943E-2
1.97897E+1, 5.15936E-2
1.98063E+1, 5.35411E-2
1.98229E+1, 5.55359E-2
1.98396E+1, 5.77600E-2
1.98562E+1, 6.05290E-2
1.98728E+1, 6.31096E-2
1.98894E+1, 6.58515E-2
1.99060E+1, 6.84828E-2
1.99226E+1, 7.12310E-2
1.99392E+1, 7.40365E-2
1.99558E+1, 7.70103E-2
1.99725E+1, 8.04191E-2
1.99891E+1, 8.37243E-2
2.00057E+1, 8.75292E-2
2.00223E+1, 9.14667E-2
2.00389E+1, 9.56516E-2
2.00555E+1, 9.95059E-2
2.00721E+1, 1.03083E-1
2.00887E+1, 1.07137E-1
2.01054E+1, 1.11086E-1
2.01220E+1, 1.15983E-1
2.01386E+1, 1.21483E-1
2.01552E+1, 1.27239E-1
2.01718E+1, 1.33710E-1
2.01884E+1, 1.38966E-1
2.02050E+1, 1.44433E-1
2.02216E+1, 1.49359E-1
2.02383E+1, 1.54829E-1
2.02549E+1, 1.60302E-1
2.02715E+1, 1.65432E-1
2.02881E+1, 1.73986E-1
2.03047E+1, 1.81074E-1
2.03213E+1, 1.87941E-1
2.03379E+1, 1.96292E-1
2.03545E+1, 2.04971E-1
2.03711E+1, 2.12408E-1
2.03878E+1, 2.19622E-1
2.04044E+1, 2.29026E-1
2.04210E+1, 2.36801E-1
2.04376E+1, 2.43525E-1
2.04542E+1, 2.52738E-1
2.04708E+1, 2.65717E-1
2.04874E+1, 2.77002E-1
2.05040E+1, 2.86518E-1
2.05207E+1, 2.97187E-1
2.05373E+1, 3.08621E-1
2.05539E+1, 3.20172E-1
2.05705E+1, 3.32207E-1
2.05871E+1, 3.43190E-1
2.06037E+1, 3.55574E-1
2.06203E+1, 3.66470E-1
2.06369E+1, 3.79798E-1
2.06536E+1, 3.92246E-1
2.06702E+1, 4.03669E-1
2.06868E+1, 4.18542E-1
2.07034E+1, 4.31513E-1
2.07200E+1, 4.46311E-1
2.07366E+1, 4.60138E-1
2.07532E+1, 4.75367E-1
2.07698E+1, 4.92091E-1
2.07865E+1, 5.06975E-1
2.08031E+1, 5.24700E-1
2.08197E+1, 5.39844E-1
2.08363E+1, 5.56743E-1
2.08529E+1, 5.73510E-1
2.08695E+1, 5.89945E-1
2.08861E+1, 6.08865E-1
2.09027E+1, 6.24882E-1
2.09194E+1, 6.47100E-1
2.09360E+1, 6.64863E-1
2.09526E+1, 6.84915E-1
2.09692E+1, 7.05676E-1
2.09858E+1, 7.26011E-1
2.10024E+1, 7.47670E-1
2.10190E+1, 7.65808E-1
2.10356E+1, 7.89387E-1
2.10522E+1, 8.09295E-1
2.10689E+1, 8.30571E-1
2.10855E+1, 8.53439E-1
2.11021E+1, 8.73540E-1
2.11187E+1, 9.01213E-1
2.11353E+1, 9.22426E-1
2.11519E+1, 9.49012E-1
2.11685E+1, 9.72365E-1
2.11851E+1, 9.92459E-1
2.12018E+1, 1.01922E+0
2.12184E+1, 1.04278E+0
2.12350E+1, 1.07012E+0
2.12516E+1, 1.09301E+0
2.12682E+1, 1.12501E+0
2.12848E+1, 1.15234E+0
2.13014E+1, 1.17649E+0
2.13180E+1, 1.20525E+0
2.13347E+1, 1.22899E+0
2.13513E+1, 1.26052E+0
2.13679E+1, 1.28719E+0
2.13845E+1, 1.31472E+0
2.14011E+1, 1.34667E+0
2.14177E+1, 1.37394E+0
2.14343E+1, 1.40525E+0
2.14509E+1, 1.43179E+0
2.14676E+1, 1.46360E+0
2.14842E+1, 1.49229E+0
2.15008E+1, 1.52506E+0
2.15174E+1, 1.56109E+0
2.15340E+1, 1.58942E+0
2.15506E+1, 1.62202E+0
2.15672E+1, 1.65147E+0
2.15838E+1, 1.68561E+0
2.16005E+1, 1.71682E+0
2.16171E+1, 1.74286E+0
2.16337E+1, 1.78163E+0
2.16503E+1, 1.80961E+0
2.16669E+1, 1.84645E+0
2.16835E+1, 1.87780E+0
2.17001E+1, 1.90927E+0
2.17167E+1, 1.94699E+0
2.17333E+1, 1.97768E+0
2.17500E+1, 2.01300E+0
2.17666E+1, 2.04271E+0
2.17832E+1, 2.08044E+0
2.17998E+1, 2.11447E+0
2.18164E+1, 2.14237E+0
2.18330E+1, 2.18036E+0
2.18496E+1, 2.21372E+0
2.18662E+1, 2.25533E+0
2.18829E+1, 2.28794E+0
2.18995E+1, 2.32483E+0
2.19161E+1, 2.36145E+0
2.19327E+1, 2.39223E+0
2.19493E+1, 2.43069E+0
2.19659E+1, 2.46081E+0
2.19825E+1, 2.49817E+0
2.19991E+1, 2.52912E+0
2.20158E+1, 2.56782E+0
2.20324E+1, 2.60822E+0
2.20490E+1, 2.63991E+0
2.20656E+1, 2.67701E+0
2.20822E+1, 2.70829E+0
2.20988E+1, 2.74445E+0
2.21154E+1, 2.77683E+0
2.21320E+1, 2.80219E+0
2.21487E+1, 2.83191E+0
2.21653E+1, 2.88021E+0
2.21819E+1, 2.91891E+0
2.21985E+1, 2.94974E+0
2.22151E+1, 2.98374E+0
2.22317E+1, 3.01916E+0
2.22483E+1, 3.05460E+0
2.22649E+1, 3.09088E+0
2.22815E+1, 3.11968E+0
2.22982E+1, 3.15785E+0
2.23148E+1, 3.19128E+0
2.23314E+1, 3.22235E+0
2.23480E+1, 3.25857E+0
2.23646E+1, 3.28528E+0
2.23812E+1, 3.32103E+0
2.23978E+1, 3.34707E+0
2.24144E+1, 3.38461E+0
2.24311E+1, 3.41480E+0
2.24477E+1, 3.44326E+0
2.24643E+1, 3.47921E+0
2.24809E+1, 3.50626E+0
2.24975E+1, 3.54133E+0
2.25141E+1, 3.57017E+0
2.25307E+1, 3.59914E+0
2.25473E+1, 3.63160E+0
2.25640E+1, 3.65639E+0
2.25806E+1, 3.68973E+0
2.25972E+1, 3.71288E+0
2.26138E+1, 3.74521E+0
2.26304E+1, 3.76836E+0
2.26470E+1, 3.80246E+0
2.26636E+1, 3.83209E+0
2.26802E+1, 3.85409E+0
2.26969E+1, 3.88485E+0
2.27135E+1, 3.90818E+0
2.27301E+1, 3.93305E+0
2.27467E+1, 3.95727E+0
2.27633E+1, 3.97486E+0
2.27799E+1, 3.99706E+0
2.27965E+1, 4.02935E+0
2.28131E+1, 4.05541E+0
2.28298E+1, 4.07561E+0
2.28464E+1, 4.09953E+0
2.28630E+1, 4.12122E+0
2.28796E+1, 4.14344E+0
2.28962E+1, 4.17045E+0
2.29128E+1, 4.18938E+0
2.29294E+1, 4.21146E+0
2.29460E+1, 4.22996E+0
2.29626E+1, 4.25056E+0
2.29793E+1, 4.27195E+0
2.29959E+1, 4.28693E+0
2.30125E+1, 4.30894E+0
2.30291E+1, 4.32521E+0
2.30457E+1, 4.34262E+0
2.30623E+1, 4.35933E+0
2.30789E+1, 4.37171E+0
2.30955E+1, 4.38628E+0
2.31122E+1, 4.40733E+0
2.31288E+1, 4.42371E+0
2.31454E+1, 4.43621E+0
2.31620E+1, 4.45156E+0
2.31786E+1, 4.46625E+0
2.31952E+1, 4.47671E+0
2.32118E+1, 4.49112E+0
2.32284E+1, 4.50040E+0
2.32451E+1, 4.51456E+0
2.32617E+1, 4.52506E+0
2.32783E+1, 4.53599E+0
2.32949E+1, 4.54734E+0
2.33115E+1, 4.55580E+0
2.33281E+1, 4.56703E+0
2.33447E+1, 4.57479E+0
2.33613E+1, 4.58503E+0
2.33780E+1, 4.59309E+0
2.33946E+1, 4.59804E+0
2.34112E+1, 4.60294E+0
2.34278E+1, 4.61312E+0
2.34444E+1, 4.61943E+0
2.34610E+1, 4.62409E+0
2.34776E+1, 4.62917E+0
2.34942E+1, 4.63380E+0
2.35109E+1, 4.63811E+0
2.35275E+1, 4.64286E+0
2.35441E+1, 4.64620E+0
2.35607E+1, 4.64969E+0
2.35773E+1, 4.65264E+0
2.35939E+1, 4.65545E+0
2.36105E+1, 4.65804E+0
2.36271E+1, 4.65995E+0
2.36437E+1, 4.66194E+0
2.36604E+1, 4.66323E+0
2.36770E+1, 4.66442E+0
2.36936E+1, 4.66523E+0
2.37102E+1, 4.66582E+0
2.37268E+1, 4.66579E+0
2.37434E+1, 4.66500E+0
2.37600E+1, 4.66310E+0
2.37766E+1, 4.66145E+0
2.37933E+1, 4.65902E+0
2.38099E+1, 4.65586E+0
2.38265E+1, 4.65378E+0
2.38431E+1, 4.64985E+0
2.38597E+1, 4.64704E+0
2.38763E+1, 4.64340E+0
2.38929E+1, 4.63965E+0
2.39095E+1, 4.63562E+0
2.39262E+1, 4.62981E+0
2.39428E+1, 4.62530E+0
2.39594E+1, 4.61926E+0
2.39760E+1, 4.61582E+0
2.39926E+1, 4.60699E+0
2.40092E+1, 4.59946E+0
2.40258E+1, 4.59445E+0
2.40424E+1, 4.58714E+0
2.40591E+1, 4.57623E+0
2.40757E+1, 4.56733E+0
2.40923E+1, 4.56010E+0
2.41089E+1, 4.55144E+0
2.41255E+1, 4.54189E+0
2.41421E+1, 4.53267E+0
2.41587E+1, 4.52095E+0
2.41753E+1, 4.51313E+0
2.41920E+1, 4.50086E+0
2.42086E+1, 4.49177E+0
2.42252E+1, 4.47918E+0
2.42418E+1, 4.46589E+0
2.42584E+1, 4.45784E+0
2.42750E+1, 4.44244E+0
2.42916E+1, 4.43264E+0
2.43082E+1, 4.41937E+0
2.43248E+1, 4.40755E+0
2.43415E+1, 4.39548E+0
2.43581E+1, 4.37887E+0
2.43747E+1, 4.36674E+0
2.43913E+1, 4.34974E+0
2.44079E+1, 4.33872E+0
2.44245E+1, 4.32156E+0
2.44411E+1, 4.30487E+0
2.44577E+1, 4.29275E+0
2.44744E+1, 4.27168E+0
2.44910E+1, 4.26098E+0
2.45076E+1, 4.23764E+0
2.45242E+1, 4.21998E+0
2.45408E+1, 4.20608E+0
2.45574E+1, 4.18750E+0
2.45740E+1, 4.17161E+0
2.45906E+1, 4.14935E+0
2.46073E+1, 4.13382E+0
2.46239E+1, 4.11474E+0
2.46405E+1, 4.09687E+0
2.46571E+1, 4.08182E+0
2.46737E+1, 4.06415E+0
2.46903E+1, 4.03969E+0
2.47069E+1, 4.01926E+0
2.47235E+1, 4.00218E+0
2.47402E+1, 3.98334E+0
2.47568E+1, 3.96281E+0
2.47734E+1, 3.94440E+0
2.47900E+1, 3.92070E+0
2.48066E+1, 3.90556E+0
2.48232E+1, 3.88177E+0
2.48398E+1, 3.86483E+0
2.48564E+1, 3.84139E+0
2.48730E+1, 3.81554E+0
2.48897E+1, 3.79659E+0
2.49063E+1, 3.77073E+0
2.49229E+1, 3.75264E+0
2.49395E+1, 3.72701E+0
2.49561E+1, 3.70256E+0
2.49727E+1, 3.68423E+0
2.49893E+1, 3.65452E+0
2.50059E+1, 3.63531E+0
2.50226E+1, 3.60964E+0
2.50392E+1, 3.58885E+0
2.50558E+1, 3.56399E+0
2.50724E+1, 3.53534E+0
2.50890E+1, 3.51697E+0
2.51056E+1, 3.48737E+0
2.51222E+1, 3.46989E+0
2.51388E+1, 3.44021E+0
2.51555E+1, 3.41643E+0
2.51721E+1, 3.39440E+0
2.51887E+1, 3.36573E+0
2.52053E+1, 3.34844E+0
2.52219E+1, 3.31380E+0
2.52385E+1, 3.29382E+0
2.52551E+1, 3.26496E+0
2.52717E+1, 3.23715E+0
2.52884E+1, 3.21698E+0
2.53050E+1, 3.18457E+0
2.53216E+1, 3.16311E+0
2.53382E+1, 3.13595E+0
2.53548E+1, 3.11765E+0
2.53714E+1, 3.08650E+0
2.53880E+1, 3.05890E+0
2.54046E+1, 3.03541E+0
2.54213E+1, 3.00560E+0
2.54379E+1, 2.98679E+0
2.54545E+1, 2.95737E+0
2.54711E+1, 2.93631E+0
2.54877E+1, 2.90968E+0
2.55043E+1, 2.88281E+0
2.55209E+1, 2.85558E+0
2.55375E+1, 2.82712E+0
2.55541E+1, 2.80582E+0
2.55708E+1, 2.77883E+0
2.55874E+1, 2.75457E+0
2.56040E+1, 2.73107E+0
2.56206E+1, 2.69780E+0
2.56372E+1, 2.67634E+0
2.56538E+1, 2.64898E+0
2.56704E+1, 2.63173E+0
2.56870E+1, 2.60023E+0
2.57037E+1, 2.57360E+0
2.57203E+1, 2.55026E+0
2.57369E+1, 2.51930E+0
2.57535E+1, 2.50143E+0
2.57701E+1, 2.47088E+0
2.57867E+1, 2.44647E+0
2.58033E+1, 2.42519E+0
2.58199E+1, 2.40146E+0
2.58366E+1, 2.37917E+0
2.58532E+1, 2.34417E+0
2.58698E+1, 2.32521E+0
2.58864E+1, 2.29721E+0
2.59030E+1, 2.27094E+0
2.59196E+1, 2.25236E+0
2.59362E+1, 2.22100E+0
2.59528E+1, 2.20184E+0
2.59695E+1, 2.17564E+0
2.59861E+1, 2.15547E+0
2.60027E+1, 2.13116E+0
2.60193E+1, 2.10391E+0
2.60359E+1, 2.08785E+0
2.60525E+1, 2.06025E+0
2.60691E+1, 2.04567E+0
2.60857E+1, 2.01842E+0
2.61024E+1, 1.99766E+0
2.61190E+1, 1.97790E+0
2.61356E+1, 1.95245E+0
2.61522E+1, 1.93409E+0
2.61688E+1, 1.90827E+0
2.61854E+1, 1.89225E+0
2.62020E+1, 1.86783E+0
2.62186E+1, 1.84863E+0
2.62352E+1, 1.82803E+0
2.62519E+1, 1.80377E+0
2.62685E+1, 1.78196E+0
2.62851E+1, 1.75835E+0
2.63017E+1, 1.74117E+0
2.63183E+1, 1.72019E+0
2.63349E+1, 1.69964E+0
2.63515E+1, 1.68416E+0
2.63681E+1, 1.65825E+0
2.63848E+1, 1.64812E+0
2.64014E+1, 1.61868E+0
2.64180E+1, 1.60015E+0
2.64346E+1, 1.58372E+0
2.64512E+1, 1.56145E+0
2.64678E+1, 1.54999E+0
2.64844E+1, 1.52370E+0
2.65010E+1, 1.50990E+0
2.65177E+1, 1.48916E+0
2.65343E+1, 1.46976E+0
2.65509E+1, 1.45627E+0
2.65675E+1, 1.43321E+0
2.65841E+1, 1.42275E+0
2.66007E+1, 1.39961E+0
2.66173E+1, 1.38519E+0
2.66339E+1, 1.36843E+0
2.66506E+1, 1.35138E+0
2.66672E+1, 1.33673E+0
2.66838E+1, 1.31672E+0
2.67004E+1, 1.30617E+0
2.67170E+1, 1.28646E+0
2.67336E+1, 1.27500E+0
2.67502E+1, 1.25756E+0
2.67668E+1, 1.23901E+0
2.67835E+1, 1.22623E+0
2.68001E+1, 1.20840E+0
2.68167E+1, 1.19753E+0
2.68333E+1, 1.18128E+0
2.68499E+1, 1.16851E+0
2.68665E+1, 1.15476E+0
2.68831E+1, 1.13564E+0
2.68997E+1, 1.12433E+0
2.69163E+1, 1.10869E+0
2.69330E+1, 1.09696E+0
2.69496E+1, 1.08371E+0
2.69662E+1, 1.06972E+0
2.69828E+1, 1.06006E+0
2.69994E+1, 1.04207E+0
2.70160E+1, 1.03257E+0
2.70326E+1, 1.01642E+0
2.70492E+1, 1.00409E+0
2.70659E+1, 9.93406E-1
2.70825E+1, 9.81573E-1
2.70991E+1, 9.67862E-1
2.71157E+1, 9.53359E-1
2.71323E+1, 9.44900E-1
2.71489E+1, 9.31772E-1
2.71655E+1, 9.19100E-1
2.71821E+1, 9.10486E-1
2.71988E+1, 8.94403E-1
2.72154E+1, 8.88125E-1
2.72320E+1, 8.72294E-1
2.72486E+1, 8.63808E-1
2.72652E+1, 8.53091E-1
2.72818E+1, 8.41237E-1
2.72984E+1, 8.35907E-1
2.73150E+1, 8.26129E-1
2.73317E+1, 8.15254E-1
2.73483E+1, 8.02449E-1
2.73649E+1, 7.95293E-1
2.73815E+1, 7.84104E-1
2.73981E+1, 7.72737E-1
2.74147E+1, 7.65021E-1
2.74313E+1, 7.53858E-1
2.74479E+1, 7.47686E-1
2.74645E+1, 7.37304E-1
2.74812E+1, 7.30127E-1
2.74978E+1, 7.21852E-1
2.75144E+1, 7.10301E-1
2.75310E+1, 7.03819E-1
2.75476E+1, 6.94046E-1
2.75642E+1, 6.87082E-1
2.75808E+1, 6.78284E-1
2.75974E+1, 6.69742E-1
2.76141E+1, 6.62073E-1
2.76307E+1, 6.51421E-1
2.76473E+1, 6.46459E-1
2.76639E+1, 6.36499E-1
2.76805E+1, 6.29221E-1
2.76971E+1, 6.22593E-1
2.77137E+1, 6.13938E-1
2.77303E+1, 6.08051E-1
2.77470E+1, 5.99679E-1
2.77636E+1, 5.96322E-1
2.77802E+1, 5.86598E-1
2.77968E+1, 5.79054E-1
2.78134E+1, 5.74238E-1
2.78300E+1, 5.65948E-1
2.78466E+1, 5.62398E-1
2.78632E+1, 5.53881E-1
2.78799E+1, 5.48451E-1
2.78965E+1, 5.42161E-1
2.79131E+1, 5.36139E-1
2.79297E+1, 5.31978E-1
2.79463E+1, 5.28770E-1
2.79629E+1, 5.20434E-1
2.79795E+1, 5.13088E-1
2.79961E+1, 5.07510E-1
2.80128E+1, 5.02716E-1
2.80294E+1, 4.95612E-1
2.80460E+1, 4.90801E-1
2.80626E+1, 4.84213E-1
2.80792E+1, 4.81250E-1
2.80958E+1, 4.74009E-1
2.81124E+1, 4.69125E-1
2.81290E+1, 4.64251E-1
2.81456E+1, 4.58011E-1
2.81623E+1, 4.54871E-1
2.81789E+1, 4.48680E-1
2.81955E+1, 4.45490E-1
2.82121E+1, 4.40278E-1
2.82287E+1, 4.36621E-1
2.82453E+1, 4.32742E-1
2.82619E+1, 4.26957E-1
2.82785E+1, 4.24031E-1
2.82952E+1, 4.19420E-1
2.83118E+1, 4.16268E-1
2.83284E+1, 4.12375E-1
2.83450E+1, 4.08185E-1
2.83616E+1, 4.05343E-1
2.83782E+1, 3.99810E-1
2.83948E+1, 3.96094E-1
2.84114E+1, 3.92224E-1
2.84281E+1, 3.88889E-1
2.84447E+1, 3.85641E-1
2.84613E+1, 3.81657E-1
2.84779E+1, 3.80525E-1
2.84945E+1, 3.76098E-1
2.85111E+1, 3.73667E-1
2.85277E+1, 3.71550E-1
2.85443E+1, 3.69420E-1
2.85610E+1, 3.68517E-1
2.85776E+1, 3.66685E-1
2.85942E+1, 3.65998E-1
2.86108E+1, 3.64821E-1
2.86274E+1, 3.64245E-1
2.86440E+1, 3.63644E-1
2.86606E+1, 3.63310E-1
2.86772E+1, 3.63837E-1
2.86939E+1, 3.64588E-1
2.87105E+1, 3.65509E-1
2.87271E+1, 3.66392E-1
2.87437E+1, 3.67206E-1
2.87603E+1, 3.68010E-1
2.87769E+1, 3.68916E-1
2.87935E+1, 3.69789E-1
2.88101E+1, 3.70415E-1
2.88267E+1, 3.70880E-1
2.88434E+1, 3.70815E-1
2.88600E+1, 3.70603E-1
2.88766E+1, 3.70243E-1
2.88932E+1, 3.69945E-1
2.89098E+1, 3.68874E-1
2.89264E+1, 3.67888E-1
2.89430E+1, 3.67067E-1
2.89596E+1, 3.65799E-1
2.89763E+1, 3.64020E-1
2.89929E+1, 3.62894E-1
2.90095E+1, 3.59935E-1
2.90261E+1, 3.57774E-1
2.90427E+1, 3.55260E-1
2.90593E+1, 3.52764E-1
2.90759E+1, 3.50671E-1
2.90925E+1, 3.47588E-1
2.91092E+1, 3.46295E-1
2.91258E+1, 3.42757E-1
2.91424E+1, 3.40767E-1
2.91590E+1, 3.37816E-1
2.91756E+1, 3.35605E-1
2.91922E+1, 3.33537E-1
2.92088E+1, 3.31129E-1
2.92254E+1, 3.30122E-1
2.92421E+1, 3.28656E-1
2.92587E+1, 3.27611E-1
2.92753E+1, 3.26402E-1
2.92919E+1, 3.24986E-1
2.93085E+1, 3.24443E-1
2.93251E+1, 3.22861E-1
2.93417E+1, 3.22013E-1
2.93583E+1, 3.20019E-1
2.93750E+1, 3.18489E-1
2.93916E+1, 3.17541E-1
2.94082E+1, 3.16002E-1
2.94248E+1, 3.14925E-1
2.94414E+1, 3.13007E-1
2.94580E+1, 3.11669E-1
2.94746E+1, 3.09599E-1
2.94912E+1, 3.08085E-1
2.95078E+1, 3.06700E-1
2.95245E+1, 3.05385E-1
2.95411E+1, 3.02904E-1
2.95577E+1, 3.00517E-1
2.95743E+1, 2.98708E-1
2.95909E+1, 2.96706E-1
2.96075E+1, 2.94364E-1
2.96241E+1, 2.92928E-1
2.96407E+1, 2.89705E-1
2.96574E+1, 2.87952E-1
2.96740E+1, 2.85414E-1
2.96906E+1, 2.83347E-1
2.97072E+1, 2.81867E-1
2.97238E+1, 2.79790E-1
2.97404E+1, 2.77920E-1
2.97570E+1, 2.74560E-1
2.97736E+1, 2.72781E-1
2.97903E+1, 2.70811E-1
2.98069E+1, 2.69024E-1
2.98235E+1, 2.68265E-1
2.98401E+1, 2.66522E-1
2.98567E+1, 2.65451E-1
2.98733E+1, 2.63543E-1
2.98899E+1, 2.62298E-1
2.99065E+1, 2.61162E-1
2.99232E+1, 2.60053E-1
2.99398E+1, 2.59478E-1
2.99564E+1, 2.58894E-1
2.99730E+1, 2.58879E-1
2.99896E+1, 2.58514E-1
3.00062E+1, 2.58397E-1
3.00228E+1, 2.58553E-1
3.00394E+1, 2.58836E-1
3.00560E+1, 2.59423E-1
3.00727E+1, 2.59929E-1
3.00893E+1, 2.60556E-1
3.01059E+1, 2.61128E-1
3.01225E+1, 2.61754E-1
3.01391E+1, 2.62418E-1
3.01557E+1, 2.63222E-1
3.01723E+1, 2.63947E-1
3.01889E+1, 2.64691E-1
3.02056E+1, 2.65391E-1
3.02222E+1, 2.65940E-1
3.02388E+1, 2.66214E-1
3.02554E+1, 2.66531E-1
3.02720E+1, 2.66769E-1
3.02886E+1, 2.67329E-1
3.03052E+1, 2.67815E-1
3.03218E+1, 2.68110E-1
3.03385E+1, 2.68276E-1
3.03551E+1, 2.67688E-1
3.03717E+1, 2.67250E-1
3.03883E+1, 2.66397E-1
3.04049E+1, 2.65883E-1
3.04215E+1, 2.65004E-1
3.04381E+1, 2.63684E-1
3.04547E+1, 2.62939E-1
3.04714E+1, 2.60860E-1
3.04880E+1, 2.59230E-1
3.05046E+1, 2.56440E-1
3.05212E+1, 2.54114E-1
3.05378E+1, 2.51732E-1
3.05544E+1, 2.48140E-1
3.05710E+1, 2.45565E-1
3.05876E+1, 2.39944E-1
3.06043E+1, 2.37901E-1
3.06209E+1, 2.31134E-1
3.06375E+1, 2.23572E-1
3.06541E+1, 2.17682E-1
3.06707E+1, 2.08531E-1
3.06873E+1, 2.02718E-1
3.07039E+1, 1.91831E-1
3.07205E+1, 1.82955E-1
3.07371E+1, 1.71676E-1
3.07538E+1, 1.57914E-1
3.07704E+1, 1.47253E-1
3.07870E+1, 1.31071E-1
3.08036E+1, 1.20183E-1
3.08202E+1, 1.03647E-1
3.08368E+1, 9.24593E-2
3.08534E+1, 7.74521E-2
3.08700E+1, 6.19216E-2
3.08867E+1, 4.88615E-2
3.09033E+1, 3.35315E-2
3.09199E+1, 2.32681E-2
3.09365E+1, 1.05394E-2
3.09531E+1, 1.66568E-3
3.09697E+1, 0.00000E+0
3.09863E+1, 0.00000E+0
3.10029E+1, 0.00000E+0
3.10196E+1, 0.00000E+0
3.10362E+1, 0.00000E+0
3.10528E+1, 0.00000E+0
3.10694E+1, 0.00000E+0
3.10860E+1, 0.00000E+0
3.11026E+1, 0.00000E+0
3.11192E+1, 0.00000E+0
3.11358E+1, 0.00000E+0
3.11525E+1, 6.38301E-3
3.11691E+1, 1.60775E-2
3.11857E+1, 2.77396E-2
3.12023E+1, 3.76384E-2
3.12189E+1, 5.31289E-2
3.12355E+1, 6.54603E-2
3.12521E+1, 8.07144E-2
3.12687E+1, 9.50876E-2
3.12854E+1, 1.07318E-1
3.13020E+1, 1.19736E-1
3.13186E+1, 1.31417E-1
3.13352E+1, 1.46766E-1
3.13518E+1, 1.58160E-1
3.13684E+1, 1.70323E-1
3.13850E+1, 1.80937E-1
3.14016E+1, 1.91004E-1
3.14182E+1, 2.02487E-1
3.14349E+1, 2.09944E-1
3.14515E+1, 2.19473E-1
3.14681E+1, 2.26166E-1
3.14847E+1, 2.34134E-1
3.15013E+1, 2.41511E-1
3.15179E+1, 2.47662E-1
3.15345E+1, 2.54200E-1
3.15511E+1, 2.58892E-1
3.15678E+1, 2.64096E-1
3.15844E+1, 2.68179E-1
3.16010E+1, 2.72371E-1
3.16176E+1, 2.76422E-1
3.16342E+1, 2.80441E-1
3.16508E+1, 2.84316E-1
3.16674E+1, 2.87204E-1
3.16840E+1, 2.90062E-1
3.17007E+1, 2.92842E-1
3.17173E+1, 2.95550E-1
3.17339E+1, 2.98626E-1
3.17505E+1, 3.01318E-1
3.17671E+1, 3.04394E-1
3.17837E+1, 3.07118E-1
3.18003E+1, 3.09746E-1
3.18169E+1, 3.12164E-1
3.18336E+1, 3.14103E-1
3.18502E+1, 3.16133E-1
3.18668E+1, 3.17938E-1
3.18834E+1, 3.20075E-1
3.19000E+1, 3.22242E-1
3.19166E+1, 3.24267E-1
3.19332E+1, 3.26353E-1
3.19498E+1, 3.28243E-1
3.19665E+1, 3.30370E-1
3.19831E+1, 3.32380E-1
3.19997E+1, 3.34437E-1
3.20163E+1, 3.36523E-1
3.20329E+1, 3.38636E-1
3.20495E+1, 3.40886E-1
3.20661E+1, 3.42651E-1
3.20827E+1, 3.44300E-1
3.20993E+1, 3.45678E-1
3.21160E+1, 3.47063E-1
3.21326E+1, 3.48456E-1
3.21492E+1, 3.49697E-1
3.21658E+1, 3.50897E-1
3.21824E+1, 3.51948E-1
3.21990E+1, 3.52819E-1
3.22156E+1, 3.53579E-1
3.22322E+1, 3.54204E-1
3.22489E+1, 3.54538E-1
3.22655E+1, 3.54900E-1
3.22821E+1, 3.54909E-1
3.22987E+1, 3.54758E-1
3.23153E+1, 3.54324E-1
3.23319E+1, 3.53915E-1
3.23485E+1, 3.53259E-1
3.23651E+1, 3.52388E-1
3.23818E+1, 3.51854E-1
3.23984E+1, 3.50865E-1
3.24150E+1, 3.49858E-1
3.24316E+1, 3.48289E-1
3.24482E+1, 3.46217E-1
3.24648E+1, 3.44852E-1
3.24814E+1, 3.42730E-1
3.24980E+1, 3.40933E-1
3.25147E+1, 3.38829E-1
3.25313E+1, 3.36634E-1
3.25479E+1, 3.34222E-1
3.25645E+1, 3.30980E-1
3.25811E+1, 3.28409E-1
3.25977E+1, 3.24259E-1
3.26143E+1, 3.21143E-1
3.26309E+1, 3.17898E-1
3.26475E+1, 3.14604E-1
3.26642E+1, 3.11914E-1
3.26808E+1, 3.08042E-1
3.26974E+1, 3.05483E-1
3.27140E+1, 3.01881E-1
3.27306E+1, 2.98891E-1
3.27472E+1, 2.95827E-1
3.27638E+1, 2.92113E-1
3.27804E+1, 2.89647E-1
3.27971E+1, 2.87096E-1
3.28137E+1, 2.83098E-1
3.28303E+1, 2.79219E-1
3.28469E+1, 2.76866E-1
3.28635E+1, 2.73754E-1
3.28801E+1, 2.70036E-1
3.28967E+1, 2.67004E-1
3.29133E+1, 2.63344E-1
3.29300E+1, 2.60575E-1
3.29466E+1, 2.57272E-1
3.29632E+1, 2.53672E-1
3.29798E+1, 2.50985E-1
3.29964E+1, 2.47414E-1
3.30130E+1, 2.44423E-1
3.30296E+1, 2.41234E-1
3.30462E+1, 2.38429E-1
3.30629E+1, 2.35309E-1
3.30795E+1, 2.32339E-1
3.30961E+1, 2.29778E-1
3.31127E+1, 2.26713E-1
3.31293E+1, 2.25291E-1
3.31459E+1, 2.22445E-1
3.31625E+1, 2.19636E-1
3.31791E+1, 2.17690E-1
3.31958E+1, 2.15738E-1
3.32124E+1, 2.14584E-1
3.32290E+1, 2.13003E-1
3.32456E+1, 2.11801E-1
3.32622E+1, 2.10435E-1
3.32788E+1, 2.08928E-1
3.32954E+1, 2.07988E-1
3.33120E+1, 2.07275E-1
3.33286E+1, 2.06837E-1
3.33453E+1, 2.06318E-1
3.33619E+1, 2.05967E-1
3.33785E+1, 2.05691E-1
3.33951E+1, 2.05525E-1
3.34117E+1, 2.05645E-1
3.34283E+1, 2.05935E-1
3.34449E+1, 2.06497E-1
3.34615E+1, 2.07406E-1
3.34782E+1, 2.08634E-1
3.34948E+1, 2.10290E-1
3.35114E+1, 2.12609E-1
3.35280E+1, 2.15266E-1
3.35446E+1, 2.19250E-1
3.35612E+1, 2.23892E-1
3.35778E+1, 2.30748E-1
3.35944E+1, 2.39345E-1
3.36111E+1, 2.50082E-1
3.36277E+1, 2.67929E-1
3.36443E+1, 2.87300E-1
3.36609E+1, 3.13033E-1
3.36775E+1, 3.43357E-1
3.36941E+1, 3.81968E-1
3.37107E+1, 4.33321E-1
3.37273E+1, 4.87604E-1
3.37440E+1, 5.41188E-1
3.37606E+1, 6.44735E-1
3.37772E+1, 7.94812E-1
3.37938E+1, 9.50162E-1
3.38104E+1, 1.11391E+0
3.38270E+1, 1.31127E+0
3.38436E+1, 1.54165E+0
3.38602E+1, 1.90482E+0
3.38769E+1, 2.26893E+0
3.38935E+1, 2.69181E+0
3.39101E+1, 3.17631E+0
3.39267E+1, 3.69784E+0
3.39433E+1, 4.37699E+0
3.39599E+1, 5.07665E+0
3.39765E+1, 6.01277E+0
3.39931E+1, 6.98900E+0
3.40097E+1, 7.97698E+0
3.40264E+1, 9.12885E+0
3.40430E+1, 1.02283E+1
3.40596E+1, 1.16769E+1
3.40762E+1, 1.28726E+1
3.40928E+1, 1.45169E+1
3.41094E+1, 1.61748E+1
3.41260E+1, 1.77529E+1
3.41426E+1, 1.96717E+1
3.41593E+1, 2.13886E+1
3.41759E+1, 2.31917E+1
3.41925E+1, 2.48034E+1
3.42091E+1, 2.64519E+1
3.42257E+1, 2.80445E+1
3.42423E+1, 2.95034E+1
3.42589E+1, 3.11373E+1
3.42755E+1, 3.23538E+1
3.42922E+1, 3.35315E+1
3.43088E+1, 3.45855E+1
3.43254E+1, 3.53743E+1
3.43420E+1, 3.60257E+1
3.43586E+1, 3.64641E+1
3.43752E+1, 3.66783E+1
3.43918E+1, 3.67931E+1
3.44084E+1, 3.67241E+1
3.44251E+1, 3.64147E+1
3.44417E+1, 3.59845E+1
3.44583E+1, 3.53201E+1
3.44749E+1, 3.46569E+1
3.44915E+1, 3.36788E+1
3.45081E+1, 3.26305E+1
3.45247E+1, 3.15275E+1
3.45413E+1, 3.03444E+1
3.45580E+1, 2.91728E+1
3.45746E+1, 2.78240E+1
3.45912E+1, 2.65370E+1
3.46078E+1, 2.50146E+1
3.46244E+1, 2.35539E+1
3.46410E+1, 2.22539E+1
3.46576E+1, 2.08862E+1
3.46742E+1, 1.96836E+1
3.46908E+1, 1.83106E+1
3.47075E+1, 1.70431E+1
3.47241E+1, 1.58183E+1
3.47407E+1, 1.47086E+1
3.47573E+1, 1.36693E+1
3.47739E+1, 1.24904E+1
3.47905E+1, 1.15951E+1
3.48071E+1, 1.06391E+1
3.48237E+1, 9.72913E+0
3.48404E+1, 8.95491E+0
3.48570E+1, 8.21041E+0
3.48736E+1, 7.54996E+0
3.48902E+1, 6.83817E+0
3.49068E+1, 6.27840E+0
3.49234E+1, 5.73957E+0
3.49400E+1, 5.26236E+0
3.49566E+1, 4.82716E+0
3.49733E+1, 4.36109E+0
3.49899E+1, 4.01246E+0
3.50065E+1, 3.75011E+0
3.50231E+1, 3.41298E+0
3.50397E+1, 3.03835E+0
3.50563E+1, 2.78576E+0
3.50729E+1, 2.56468E+0
3.50895E+1, 2.34796E+0
3.51062E+1, 2.16748E+0
3.51228E+1, 1.97055E+0
3.51394E+1, 1.80337E+0
3.51560E+1, 1.66743E+0
3.51726E+1, 1.53805E+0
3.51892E+1, 1.43019E+0
3.52058E+1, 1.32117E+0
3.52224E+1, 1.22555E+0
3.52390E+1, 1.13367E+0
3.52557E+1, 1.05726E+0
3.52723E+1, 9.90139E-1
3.52889E+1, 9.17514E-1
3.53055E+1, 8.63335E-1
3.53221E+1, 8.14266E-1
3.53387E+1, 7.67042E-1
3.53553E+1, 7.15757E-1
3.53719E+1, 6.70334E-1
3.53886E+1, 6.34656E-1
3.54052E+1, 5.95036E-1
3.54218E+1, 5.64807E-1
3.54384E+1, 5.34898E-1
3.54550E+1, 5.07965E-1
3.54716E+1, 4.83247E-1
3.54882E+1, 4.58939E-1
3.55048E+1, 4.37509E-1
3.55215E+1, 4.11768E-1
3.55381E+1, 3.93239E-1
3.55547E+1, 3.76114E-1
3.55713E+1, 3.60001E-1
3.55879E+1, 3.45332E-1
3.56045E+1, 3.28615E-1
3.56211E+1, 3.15836E-1
3.56377E+1, 3.06230E-1
3.56544E+1, 2.93730E-1
3.56710E+1, 2.78996E-1
3.56876E+1, 2.68682E-1
3.57042E+1, 2.59530E-1
3.57208E+1, 2.50113E-1
3.57374E+1, 2.42207E-1
3.57540E+1, 2.33606E-1
3.57706E+1, 2.26073E-1
3.57873E+1, 2.19982E-1
3.58039E+1, 2.13769E-1
3.58205E+1, 2.08236E-1
3.58371E+1, 2.02305E-1
3.58537E+1, 1.97700E-1
3.58703E+1, 1.93781E-1
3.58869E+1, 1.90167E-1
3.59035E+1, 1.87259E-1
3.59201E+1, 1.84193E-1
3.59368E+1, 1.81729E-1
3.59534E+1, 1.78711E-1
3.59700E+1, 1.76393E-1
3.59866E+1, 1.74857E-1
3.60032E+1, 1.73543E-1
3.60198E+1, 1.72725E-1
3.60364E+1, 1.72059E-1
3.60530E+1, 1.72134E-1
3.60697E+1, 1.72907E-1
3.60863E+1, 1.74007E-1
3.61029E+1, 1.76006E-1
3.61195E+1, 1.79176E-1
3.61361E+1, 1.82857E-1
3.61527E+1, 1.88098E-1
3.61693E+1, 1.94574E-1
3.61859E+1, 2.02464E-1
3.62026E+1, 2.10379E-1
3.62192E+1, 2.20244E-1
3.62358E+1, 2.34944E-1
3.62524E+1, 2.48246E-1
3.62690E+1, 2.64831E-1
3.62856E+1, 2.84436E-1
3.63022E+1, 3.04720E-1
3.63188E+1, 3.28093E-1
3.63355E+1, 3.52543E-1
3.63521E+1, 3.81893E-1
3.63687E+1, 4.12939E-1
3.63853E+1, 4.50086E-1
3.64019E+1, 4.86979E-1
3.64185E+1, 5.24745E-1
3.64351E+1, 5.67999E-1
3.64517E+1, 6.08581E-1
3.64684E+1, 6.56449E-1
3.64850E+1, 7.01274E-1
3.65016E+1, 7.56983E-1
3.65182E+1, 8.13846E-1
3.65348E+1, 8.61951E-1
3.65514E+1, 9.15072E-1
3.65680E+1, 9.61438E-1
3.65846E+1, 1.01192E+0
3.66012E+1, 1.06396E+0
3.66179E+1, 1.11314E+0
3.66345E+1, 1.15731E+0
3.66511E+1, 1.19462E+0
3.66677E+1, 1.23172E+0
3.66843E+1, 1.26306E+0
3.67009E+1, 1.29145E+0
3.67175E+1, 1.31270E+0
3.67341E+1, 1.32772E+0
3.67508E+1, 1.34477E+0
3.67674E+1, 1.35162E+0
3.67840E+1, 1.35372E+0
3.68006E+1, 1.35151E+0
3.68172E+1, 1.34328E+0
3.68338E+1, 1.33106E+0
3.68504E+1, 1.31558E+0
3.68670E+1, 1.28908E+0
3.68837E+1, 1.26527E+0
3.69003E+1, 1.23546E+0
3.69169E+1, 1.20491E+0
3.69335E+1, 1.17898E+0
3.69501E+1, 1.15119E+0
3.69667E+1, 1.10476E+0
3.69833E+1, 1.03347E+0
3.69999E+1, 9.99125E-1
3.70166E+1, 9.49556E-1
3.70332E+1, 9.08947E-1
3.70498E+1, 8.70950E-1
3.70664E+1, 8.23819E-1
3.70830E+1, 7.91613E-1
3.70996E+1, 7.38831E-1
3.71162E+1, 7.04175E-1
3.71328E+1, 6.66921E-1
3.71495E+1, 6.31921E-1
3.71661E+1, 6.05439E-1
3.71827E+1, 5.67856E-1
3.71993E+1, 5.26693E-1
3.72159E+1, 4.87916E-1
3.72325E+1, 4.60701E-1
3.72491E+1, 4.35492E-1
3.72657E+1, 4.05525E-1
3.72823E+1, 3.82142E-1
3.72990E+1, 3.56876E-1
3.73156E+1, 3.39864E-1
3.73322E+1, 3.19400E-1
3.73488E+1, 3.03005E-1
3.73654E+1, 2.83455E-1
3.73820E+1, 2.64496E-1
3.73986E+1, 2.54060E-1
3.74152E+1, 2.36189E-1
3.74319E+1, 2.25406E-1
3.74485E+1, 2.14380E-1
3.74651E+1, 2.04172E-1
3.74817E+1, 1.95811E-1
3.74983E+1, 1.84144E-1
3.75149E+1, 1.76751E-1
3.75315E+1, 1.68573E-1
3.75481E+1, 1.62871E-1
3.75648E+1, 1.55423E-1
3.75814E+1, 1.49119E-1
3.75980E+1, 1.45380E-1
3.76146E+1, 1.38627E-1
3.76312E+1, 1.35006E-1
3.76478E+1, 1.30774E-1
3.76644E+1, 1.26846E-1
3.76810E+1, 1.22872E-1
3.76977E+1, 1.18695E-1
3.77143E+1, 1.16838E-1
3.77309E+1, 1.13721E-1
3.77475E+1, 1.11951E-1
3.77641E+1, 1.08954E-1
3.77807E+1, 1.06677E-1
3.77973E+1, 1.05189E-1
3.78139E+1, 1.02373E-1
3.78305E+1, 1.01158E-1
3.78472E+1, 9.95117E-2
3.78638E+1, 9.82560E-2
3.78804E+1, 9.64446E-2
3.78970E+1, 9.45025E-2
3.79136E+1, 9.37835E-2
3.79302E+1, 9.18423E-2
3.79468E+1, 9.09874E-2
3.79634E+1, 8.99446E-2
3.79801E+1, 8.89587E-2
3.79967E+1, 8.84241E-2
3.80133E+1, 8.70770E-2
3.80299E+1, 8.53154E-2
3.80465E+1, 8.38917E-2
3.80631E+1, 8.33893E-2
3.80797E+1, 8.23293E-2
3.80963E+1, 8.15763E-2
3.81130E+1, 8.12010E-2
3.81296E+1, 7.97825E-2
3.81462E+1, 7.92437E-2
3.81628E+1, 7.83537E-2
3.81794E+1, 7.77009E-2
3.81960E+1, 7.71128E-2
3.82126E+1, 7.64637E-2
3.82292E+1, 7.58015E-2
3.82459E+1, 7.47556E-2
3.82625E+1, 7.42618E-2
3.82791E+1, 7.28428E-2
3.82957E+1, 7.19448E-2
3.83123E+1, 7.14323E-2
3.83289E+1, 7.04434E-2
3.83455E+1, 7.01717E-2
3.83621E+1, 6.97336E-2
3.83788E+1, 6.99060E-2
3.83954E+1, 6.99126E-2
3.84120E+1, 7.01289E-2
3.84286E+1, 7.05810E-2
3.84452E+1, 7.06932E-2
3.84618E+1, 7.13466E-2
3.84784E+1, 7.20677E-2
3.84950E+1, 7.30455E-2
3.85116E+1, 7.41026E-2
3.85283E+1, 7.53309E-2
3.85449E+1, 7.66239E-2
3.85615E+1, 7.82151E-2
3.85781E+1, 8.00328E-2
3.85947E+1, 8.24967E-2
3.86113E+1, 8.54033E-2
3.86279E+1, 8.93703E-2
3.86445E+1, 9.46952E-2
3.86612E+1, 9.89425E-2
3.86778E+1, 1.07333E-1
3.86944E+1, 1.14259E-1
3.87110E+1, 1.22420E-1
3.87276E+1, 1.32466E-1
3.87442E+1, 1.43124E-1
3.87608E+1, 1.57806E-1
3.87774E+1, 1.68231E-1
3.87941E+1, 1.85125E-1
3.88107E+1, 1.99432E-1
3.88273E+1, 2.20448E-1
3.88439E+1, 2.43174E-1
3.88605E+1, 2.59650E-1
3.88771E+1, 2.93569E-1
3.88937E+1, 3.15290E-1
3.89103E+1, 3.43016E-1
3.89270E+1, 3.70579E-1
3.89436E+1, 4.01340E-1
3.89602E+1, 4.43238E-1
3.89768E+1, 4.65123E-1
3.89934E+1, 5.10169E-1
3.90100E+1, 5.42270E-1
3.90266E+1, 5.74305E-1
3.90432E+1, 6.11224E-1
3.90599E+1, 6.37894E-1
3.90765E+1, 6.83737E-1
3.90931E+1, 7.11445E-1
3.91097E+1, 7.45971E-1
3.91263E+1, 7.71902E-1
3.91429E+1, 8.01934E-1
3.91595E+1, 8.33759E-1
3.91761E+1, 8.49263E-1
3.91927E+1, 8.78931E-1
3.92094E+1, 8.94147E-1
3.92260E+1, 9.09848E-1
3.92426E+1, 9.22228E-1
3.92592E+1, 9.30998E-1
3.92758E+1, 9.39518E-1
3.92924E+1, 9.43342E-1
3.93090E+1, 9.45606E-1
3.93256E+1, 9.44135E-1
3.93423E+1, 9.39640E-1
3.93589E+1, 9.31826E-1
3.93755E+1, 9.25067E-1
3.93921E+1, 9.08196E-1
3.94087E+1, 8.96586E-1
3.94253E+1, 8.79678E-1
3.94419E+1, 8.63626E-1
3.94585E+1, 8.46521E-1
3.94752E+1, 8.25656E-1
3.94918E+1, 8.12199E-1
3.95084E+1, 7.86321E-1
3.95250E+1, 7.53616E-1
3.95416E+1, 7.30668E-1
3.95582E+1, 7.05639E-1
3.95748E+1, 6.86605E-1
3.95914E+1, 6.55747E-1
3.96081E+1, 6.34830E-1
3.96247E+1, 6.06397E-1
3.96413E+1, 5.88167E-1
3.96579E+1, 5.60848E-1
3.96745E+1, 5.33840E-1
3.96911E+1, 5.19132E-1
3.97077E+1, 4.85934E-1
3.97243E+1, 4.68589E-1
3.97409E+1, 4.45068E-1
3.97576E+1, 4.25100E-1
3.97742E+1, 4.06427E-1
3.97908E+1, 3.84583E-1
3.98074E+1, 3.72091E-1
3.98240E+1, 3.51822E-1
3.98406E+1, 3.28673E-1
3.98572E+1, 3.05330E-1
3.98738E+1, 2.86290E-1
3.98905E+1, 2.72985E-1
3.99071E+1, 2.49958E-1
3.99237E+1, 2.35708E-1
3.99403E+1, 2.16209E-1
3.99569E+1, 2.03683E-1
3.99735E+1, 1.86127E-1
3.99901E+1, 1.67878E-1
4.00067E+1, 1.58779E-1
4.00234E+1, 1.37397E-1
4.00400E+1, 1.29761E-1
4.00566E+1, 1.10471E-1
4.00732E+1, 9.74031E-2
4.00898E+1, 8.61174E-2
4.01064E+1, 7.12187E-2
4.01230E+1, 6.53541E-2
4.01396E+1, 5.44816E-2
4.01563E+1, 3.49988E-2
4.01729E+1, 2.10526E-2
4.01895E+1, 9.75739E-3
4.02061E+1, 5.03019E-3
4.02227E+1, 0.00000E+0
4.02393E+1, 0.00000E+0
4.02559E+1, 0.00000E+0
4.02725E+1, 0.00000E+0
4.02892E+1, 0.00000E+0
4.03058E+1, 0.00000E+0
4.03224E+1, 0.00000E+0
4.03390E+1, 0.00000E+0
4.03556E+1, 0.00000E+0
4.03722E+1, 0.00000E+0
4.03888E+1, 0.00000E+0
4.04054E+1, 0.00000E+0
4.04220E+1, 0.00000E+0
4.04387E+1, 0.00000E+0
4.04553E+1, 0.00000E+0
4.04719E+1, 0.00000E+0
4.04885E+1, 0.00000E+0
4.05051E+1, 0.00000E+0
4.05217E+1, 0.00000E+0
4.05383E+1, 0.00000E+0
4.05549E+1, 0.00000E+0
4.05716E+1, 0.00000E+0
4.05882E+1, 0.00000E+0
4.06048E+1, 0.00000E+0
4.06214E+1, 0.00000E+0
4.06380E+1, 0.00000E+0
4.06546E+1, 0.00000E+0
4.06712E+1, 0.00000E+0
4.06878E+1, 0.00000E+0
4.07045E+1, 0.00000E+0
4.07211E+1, 0.00000E+0
4.07377E+1, 0.00000E+0
4.07543E+1, 0.00000E+0
4.07709E+1, 0.00000E+0
4.07875E+1, 0.00000E+0
4.08041E+1, 0.00000E+0
4.08207E+1, 0.00000E+0
4.08374E+1, 0.00000E+0
4.08540E+1, 0.00000E+0
4.08706E+1, 0.00000E+0
4.08872E+1, 0.00000E+0
4.09038E+1, 0.00000E+0
4.09204E+1, 0.00000E+0
4.09370E+1, 0.00000E+0
4.09536E+1, 0.00000E+0
4.09703E+1, 2.16258E-6
4.09869E+1, 1.88327E-4
4.10035E+1, 1.23892E-3
4.10201E+1, 2.15824E-3
4.10367E+1, 3.07755E-3
4.10533E+1, 3.99574E-3
4.10699E+1, 4.89133E-3
4.10865E+1, 5.66151E-3
4.11031E+1, 6.21948E-3
4.11198E+1, 6.65429E-3
4.11364E+1, 6.85398E-3
4.11530E+1, 7.20909E-3
4.11696E+1, 7.16765E-3
4.11862E+1, 7.53885E-3
4.12028E+1, 7.77948E-3
4.12194E+1, 8.37972E-3
4.12360E+1, 8.79810E-3
4.12527E+1, 9.29334E-3
4.12693E+1, 1.00769E-2
4.12859E+1, 1.09488E-2
4.13025E+1, 1.18675E-2
4.13191E+1, 1.27263E-2
4.13357E+1, 1.32513E-2
4.13523E+1, 1.36985E-2
4.13689E+1, 1.36816E-2
4.13856E+1, 1.41550E-2
4.14022E+1, 1.49338E-2
4.14188E+1, 1.49178E-2
4.14354E+1, 1.55036E-2
4.14520E+1, 1.63777E-2
4.14686E+1, 1.72905E-2
4.14852E+1, 1.84673E-2
4.15018E+1, 1.99462E-2
4.15185E+1, 2.17521E-2
4.15351E+1, 2.37020E-2
4.15517E+1, 2.52688E-2
4.15683E+1, 2.76256E-2
4.15849E+1, 2.95956E-2
4.16015E+1, 3.20646E-2
4.16181E+1, 3.41988E-2
4.16347E+1, 3.65071E-2
4.16514E+1, 3.94280E-2
4.16680E+1, 4.16136E-2
4.16846E+1, 4.52838E-2
4.17012E+1, 4.81353E-2
4.17178E+1, 5.12683E-2
4.17344E+1, 5.42309E-2
4.17510E+1, 5.80716E-2
4.17676E+1, 6.39558E-2
4.17842E+1, 6.83198E-2
4.18009E+1, 7.46223E-2
4.18175E+1, 7.91940E-2
4.18341E+1, 8.50059E-2
4.18507E+1, 9.06799E-2
4.18673E+1, 9.63691E-2
4.18839E+1, 1.05269E-1
4.19005E+1, 1.11153E-1
4.19171E+1, 1.19303E-1
4.19338E+1, 1.26650E-1
4.19504E+1, 1.34452E-1
4.19670E+1, 1.44596E-1
4.19836E+1, 1.50195E-1
4.20002E+1, 1.60848E-1
4.20168E+1, 1.68755E-1
4.20334E+1, 1.77874E-1
4.20500E+1, 1.87456E-1
4.20667E+1, 1.94855E-1
4.20833E+1, 2.06586E-1
4.20999E+1, 2.13782E-1
4.21165E+1, 2.25165E-1
4.21331E+1, 2.30903E-1
4.21497E+1, 2.42178E-1
4.21663E+1, 2.52411E-1
4.21829E+1, 2.57975E-1
4.21996E+1, 2.69735E-1
4.22162E+1, 2.75540E-1
4.22328E+1, 2.83877E-1
4.22494E+1, 2.89588E-1
4.22660E+1, 2.96146E-1
4.22826E+1, 3.02416E-1
4.22992E+1, 3.07560E-1
4.23158E+1, 3.14435E-1
4.23324E+1, 3.18127E-1
4.23491E+1, 3.22139E-1
4.23657E+1, 3.24681E-1
4.23823E+1, 3.27911E-1
4.23989E+1, 3.30332E-1
4.24155E+1, 3.31848E-1
4.24321E+1, 3.33393E-1
4.24487E+1, 3.34603E-1
4.24653E+1, 3.35680E-1
4.24820E+1, 3.36083E-1
4.24986E+1, 3.36328E-1
4.25152E+1, 3.34185E-1
4.25318E+1, 3.32862E-1
4.25484E+1, 3.29992E-1
4.25650E+1, 3.28050E-1
4.25816E+1, 3.25427E-1
4.25982E+1, 3.21282E-1
4.26149E+1, 3.19589E-1
4.26315E+1, 3.13910E-1
4.26481E+1, 3.11737E-1
4.26647E+1, 3.05604E-1
4.26813E+1, 3.00892E-1
4.26979E+1, 2.96384E-1
4.27145E+1, 2.88770E-1
4.27311E+1, 2.84841E-1
4.27478E+1, 2.76660E-1
4.27644E+1, 2.72293E-1
4.27810E+1, 2.65537E-1
4.27976E+1, 2.60297E-1
4.28142E+1, 2.55361E-1
4.28308E+1, 2.46429E-1
4.28474E+1, 2.42019E-1
4.28640E+1, 2.34953E-1
4.28807E+1, 2.29708E-1
4.28973E+1, 2.24175E-1
4.29139E+1, 2.17267E-1
4.29305E+1, 2.12377E-1
4.29471E+1, 2.03994E-1
4.29637E+1, 1.99267E-1
4.29803E+1, 1.93529E-1
4.29969E+1, 1.87725E-1
4.30135E+1, 1.83477E-1
4.30302E+1, 1.75649E-1
4.30468E+1, 1.71605E-1
4.30634E+1, 1.64607E-1
4.30800E+1, 1.61249E-1
4.30966E+1, 1.55844E-1
4.31132E+1, 1.51644E-1
4.31298E+1, 1.47710E-1
4.31464E+1, 1.41010E-1
4.31631E+1, 1.37943E-1
4.31797E+1, 1.33184E-1
4.31963E+1, 1.29993E-1
4.32129E+1, 1.26448E-1
4.32295E+1, 1.21097E-1
4.32461E+1, 1.19018E-1
4.32627E+1, 1.13298E-1
4.32793E+1, 1.11165E-1
4.32960E+1, 1.06550E-1
4.33126E+1, 1.03269E-1
4.33292E+1, 1.01456E-1
4.33458E+1, 9.76196E-2
4.33624E+1, 9.67849E-2
4.33790E+1, 9.22179E-2
4.33956E+1, 9.02328E-2
4.34122E+1, 8.71015E-2
4.34289E+1, 8.38968E-2
4.34455E+1, 8.29599E-2
4.34621E+1, 7.99415E-2
4.34787E+1, 7.87190E-2
4.34953E+1, 7.65387E-2
4.35119E+1, 7.55079E-2
4.35285E+1, 7.32334E-2
4.35451E+1, 7.06027E-2
4.35618E+1, 6.94408E-2
4.35784E+1, 6.71619E-2
4.35950E+1, 6.64983E-2
4.36116E+1, 6.48680E-2
4.36282E+1, 6.37997E-2
4.36448E+1, 6.26664E-2
4.36614E+1, 6.05435E-2
4.36780E+1, 6.04102E-2
4.36946E+1, 5.85618E-2
4.37113E+1, 5.78150E-2
4.37279E+1, 5.67790E-2
4.37445E+1, 5.57328E-2
4.37611E+1, 5.53970E-2
4.37777E+1, 5.38333E-2
4.37943E+1, 5.34264E-2
4.38109E+1, 5.19247E-2
4.38275E+1, 5.08227E-2
4.38442E+1, 4.99530E-2
4.38608E+1, 4.80391E-2
4.38774E+1, 4.77870E-2
4.38940E+1, 4.56603E-2
4.39106E+1, 4.52800E-2
4.39272E+1, 4.41698E-2
4.39438E+1, 4.34840E-2
4.39604E+1, 4.26947E-2
4.39771E+1, 4.08096E-2
4.39937E+1, 4.10075E-2
4.40103E+1, 3.89451E-2
4.40269E+1, 3.86379E-2
4.40435E+1, 3.76984E-2
4.40601E+1, 3.70540E-2
4.40767E+1, 3.69977E-2
4.40933E+1, 3.61364E-2
4.41100E+1, 3.51564E-2
4.41266E+1, 3.37839E-2
4.41432E+1, 3.32565E-2
4.41598E+1, 3.21837E-2
4.41764E+1, 3.06658E-2
4.41930E+1, 3.04912E-2
4.42096E+1, 2.87862E-2
4.42262E+1, 2.85668E-2
4.42429E+1, 2.78903E-2
4.42595E+1, 2.75606E-2
4.42761E+1, 2.73285E-2
4.42927E+1, 2.67282E-2
4.43093E+1, 2.66528E-2
4.43259E+1, 2.60783E-2
4.43425E+1, 2.58291E-2
4.43591E+1, 2.52370E-2
4.43757E+1, 2.40825E-2
4.43924E+1, 2.35781E-2
4.44090E+1, 2.18490E-2
4.44256E+1, 2.14909E-2
4.44422E+1, 2.05871E-2
4.44588E+1, 2.02580E-2
4.44754E+1, 2.02267E-2
4.44920E+1, 1.98213E-2
4.45086E+1, 1.95347E-2
4.45253E+1, 1.83136E-2
4.45419E+1, 1.82142E-2
4.45585E+1, 1.78684E-2
4.45751E+1, 1.79290E-2
4.45917E+1, 1.80913E-2
4.46083E+1, 1.79910E-2
4.46249E+1, 1.82198E-2
4.46415E+1, 1.77512E-2
4.46582E+1, 1.76412E-2
4.46748E+1, 1.66339E-2
4.46914E+1, 1.55532E-2
4.47080E+1, 1.53082E-2
4.47246E+1, 1.43489E-2
4.47412E+1, 1.46797E-2
4.47578E+1, 1.39450E-2
4.47744E+1, 1.37614E-2
4.47911E+1, 1.33024E-2
4.48077E+1, 1.23853E-2
4.48243E+1, 1.23708E-2
4.48409E+1, 1.13217E-2
4.48575E+1, 1.13952E-2
4.48741E+1, 1.06193E-2
4.48907E+1, 1.03715E-2
4.49073E+1, 1.03562E-2
4.49239E+1, 1.00466E-2
4.49406E+1, 1.02887E-2
4.49572E+1, 1.05006E-2
4.49738E+1, 1.10320E-2
4.49904E+1, 1.12939E-2
4.50070E+1, 1.13004E-2
4.50236E+1, 1.12194E-2
4.50402E+1, 1.15091E-2
4.50568E+1, 9.77532E-3
4.50735E+1, 8.70858E-3
4.50901E+1, 8.30904E-3
4.51067E+1, 7.82671E-3
4.51233E+1, 7.44353E-3
4.51399E+1, 7.55651E-3
4.51565E+1, 6.93768E-3
4.51731E+1, 6.69411E-3
4.51897E+1, 6.37769E-3
4.52064E+1, 6.06155E-3
4.52230E+1, 5.94235E-3
4.52396E+1, 5.17859E-3
4.52562E+1, 5.33317E-3
4.52728E+1, 4.40192E-3
4.52894E+1, 4.29396E-3
4.53060E+1, 3.90916E-3
4.53226E+1, 3.59275E-3
4.53393E+1, 3.41829E-3
4.53559E+1, 3.11139E-3
4.53725E+1, 2.62375E-3
4.53891E+1, 2.12852E-3
4.54057E+1, 2.34865E-3
4.54223E+1, 2.63823E-3
4.54389E+1, 2.63185E-3
4.54555E+1, 2.70355E-3
4.54722E+1, 2.05474E-3
4.54888E+1, 1.97484E-3
4.55054E+1, 1.25867E-3
4.55220E+1, 1.07524E-3
4.55386E+1, 7.47479E-4
4.55552E+1, 6.95007E-4
4.55718E+1, 1.23478E-3
4.55884E+1, 1.76672E-3
4.56050E+1, 2.22728E-3
4.56217E+1, 2.34812E-3
4.56383E+1, 2.17995E-3
4.56549E+1, 2.08392E-3
4.56715E+1, 1.86854E-3
4.56881E+1, 1.38467E-3
4.57047E+1, 6.15657E-4
4.57213E+1, 7.04017E-4
4.57379E+1, 3.47071E-4
4.57546E+1, 3.74575E-5
4.57712E+1, 0.00000E+0
4.57878E+1, 0.00000E+0
4.58044E+1, 0.00000E+0
4.58210E+1, 0.00000E+0
4.58376E+1, 0.00000E+0
4.58542E+1, 0.00000E+0
4.58708E+1, 0.00000E+0
4.58875E+1, 0.00000E+0
4.59041E+1, 0.00000E+0
4.59207E+1, 0.00000E+0
4.59373E+1, 0.00000E+0
4.59539E+1, 0.00000E+0
4.59705E+1, 0.00000E+0
4.59871E+1, 0.00000E+0
4.60037E+1, 0.00000E+0
4.60204E+1, 0.00000E+0
4.60370E+1, 0.00000E+0
4.60536E+1, 0.00000E+0
4.60702E+1, 0.00000E+0
4.60868E+1, 0.00000E+0
4.61034E+1, 0.00000E+0
4.61200E+1, 0.00000E+0
4.61366E+1, 0.00000E+0
4.61533E+1, 0.00000E+0
4.61699E+1, 0.00000E+0
4.61865E+1, 0.00000E+0
4.62031E+1, 0.00000E+0
4.62197E+1, 0.00000E+0
4.62363E+1, 0.00000E+0
4.62529E+1, 0.00000E+0
4.62695E+1, 0.00000E+0
4.62861E+1, 0.00000E+0
4.63028E+1, 0.00000E+0
4.63194E+1, 0.00000E+0
4.63360E+1, 0.00000E+0
4.63526E+1, 0.00000E+0
4.63692E+1, 0.00000E+0
4.63858E+1, 0.00000E+0
4.64024E+1, 0.00000E+0
4.64190E+1, 0.00000E+0
4.64357E+1, 0.00000E+0
4.64523E+1, 0.00000E+0
4.64689E+1, 0.00000E+0
4.64855E+1, 0.00000E+0
4.65021E+1, 0.00000E+0
4.65187E+1, 0.00000E+0
4.65353E+1, 0.00000E+0
4.65519E+1, 0.00000E+0
4.65686E+1, 0.00000E+0
4.65852E+1, 0.00000E+0
4.66018E+1, 0.00000E+0
4.66184E+1, 0.00000E+0
4.66350E+1, 0.00000E+0
4.66516E+1, 0.00000E+0
4.66682E+1, 0.00000E+0
4.66848E+1, 0.00000E+0
4.67015E+1, 0.00000E+0
4.67181E+1, 0.00000E+0
4.67347E+1, 0.00000E+0
4.67513E+1, 0.00000E+0
4.67679E+1, 0.00000E+0
4.67845E+1, 0.00000E+0
4.68011E+1, 0.00000E+0
4.68177E+1, 0.00000E+0
4.68344E+1, 0.00000E+0
4.68510E+1, 0.00000E+0
4.68676E+1, 0.00000E+0
4.68842E+1, 0.00000E+0
4.69008E+1, 0.00000E+0
4.69174E+1, 0.00000E+0
4.69340E+1, 0.00000E+0
4.69506E+1, 0.00000E+0
4.69672E+1, 0.00000E+0
4.69839E+1, 0.00000E+0
4.70005E+1, 0.00000E+0
4.70171E+1, 0.00000E+0
4.70337E+1, 0.00000E+0
4.70503E+1, 0.00000E+0
4.70669E+1, 0.00000E+0
4.70835E+1, 0.00000E+0
4.71001E+1, 0.00000E+0
4.71168E+1, 0.00000E+0
4.71334E+1, 0.00000E+0
4.71500E+1, 0.00000E+0
4.71666E+1, 0.00000E+0
4.71832E+1, 0.00000E+0
4.71998E+1, 0.00000E+0
4.72164E+1, 0.00000E+0
4.72330E+1, 0.00000E+0
4.72497E+1, 0.00000E+0
4.72663E+1, 0.00000E+0
4.72829E+1, 0.00000E+0
4.72995E+1, 0.00000E+0
4.73161E+1, 0.00000E+0
4.73327E+1, 0.00000E+0
4.73493E+1, 0.00000E+0
4.73659E+1, 0.00000E+0
4.73826E+1, 0.00000E+0
4.73992E+1, 0.00000E+0
4.74158E+1, 0.00000E+0
4.74324E+1, 0.00000E+0
4.74490E+1, 0.00000E+0
4.74656E+1, 8.54900E-5
4.74822E+1, 9.74591E-5
4.74988E+1, 3.64104E-4
4.75154E+1, 2.62755E-4
4.75321E+1, 3.34358E-4
4.75487E+1, 3.67049E-4
4.75653E+1, 3.33302E-4
4.75819E+1, 6.04900E-4
4.75985E+1, 6.29378E-4
4.76151E+1, 6.40473E-4
4.76317E+1, 4.00667E-4
4.76483E+1, 2.35536E-4
4.76650E+1, 2.49431E-4
4.76816E+1, 2.27435E-4
4.76982E+1, 5.30287E-4
4.77148E+1, 7.47464E-4
4.77314E+1, 9.94342E-4
4.77480E+1, 7.30782E-4
4.77646E+1, 1.55887E-4
4.77812E+1, 0.00000E+0
4.77979E+1, 0.00000E+0
4.78145E+1, 0.00000E+0
4.78311E+1, 0.00000E+0
4.78477E+1, 1.02719E-4
4.78643E+1, 4.41326E-4
4.78809E+1, 8.08937E-4
4.78975E+1, 1.41790E-3
4.79141E+1, 1.91729E-3
4.79308E+1, 2.15945E-3
4.79474E+1, 1.91937E-3
4.79640E+1, 1.47449E-3
4.79806E+1, 1.27345E-3
4.79972E+1, 8.88693E-4
4.80138E+1, 8.98090E-4
4.80304E+1, 6.95806E-4
4.80470E+1, 5.59463E-4
4.80637E+1, 4.47939E-4
4.80803E+1, 0.00000E+0
##END=$$ End of the data block
