##TITLE=Spectrum
##JCAMP-DX=5.00 $$ chemotion-converter-app (1.6.2)
##DATA TYPE=SIZE EXCLUSION CHROMATOGRAPHY
##DATA CLASS=XYPOINTS
##ORIGIN=
##OWNER=
##XUNITS=MILLILITERS
##YUNITS=ARBITRARY UNITS
##NO_DEC=2
##SOFTWARE=WINGPC
##FIRSTX=2.01827E+1
##LASTX=2.84801E+1
##MINX=20.1827
##MAXX=28.4801
##MINY=0.0
##MAXY=20.5147
##NPOINTS=501
##FIRSTY=0.00000E+0
##XUNITS=MILLILITERS
##YUNITS=ARBITRARY UNITS
##XYPOINTS=(XY..XY)
2.01827E+1, 0.00000E+0
2.01993E+1, 8.48273E-3
2.02159E+1, 1.20753E-3
2.02325E+1, 3.08800E-3
2.02491E+1, 4.74714E-4
2.02657E+1, 1.31164E-2
2.02823E+1, 1.13903E-2
2.02989E+1, 2.26445E-2
2.03155E+1, 2.94911E-2
2.03321E+1, 3.77658E-2
2.03487E+1, 3.84554E-2
2.03653E+1, 4.79450E-2
2.03819E+1, 5.53176E-2
2.03985E+1, 5.83687E-2
2.04150E+1, 7.50819E-2
2.04316E+1, 9.23068E-2
2.04482E+1, 1.10888E-1
2.04648E+1, 1.26999E-1
2.04814E+1, 1.64218E-1
2.04980E+1, 1.86807E-1
2.05146E+1, 2.19527E-1
2.05312E+1, 2.45342E-1
2.05478E+1, 2.84301E-1
2.05644E+1, 3.23132E-1
2.05810E+1, 3.69133E-1
2.05976E+1, 4.16896E-1
2.06142E+1, 4.69186E-1
2.06308E+1, 5.28245E-1
2.06474E+1, 5.90328E-1
2.06640E+1, 6.66453E-1
2.06806E+1, 7.34137E-1
2.06972E+1, 8.19896E-1
2.07138E+1, 9.05453E-1
2.07303E+1, 1.00239E+0
2.07469E+1, 1.10022E+0
2.07635E+1, 1.21737E+0
2.07801E+1, 1.32851E+0
2.07967E+1, 1.45096E+0
2.08133E+1, 1.57875E+0
2.08299E+1, 1.71316E+0
2.08465E+1, 1.86294E+0
2.08631E+1, 2.01738E+0
2.08797E+1, 2.18449E+0
2.08963E+1, 2.35419E+0
2.09129E+1, 2.53980E+0
2.09295E+1, 2.73100E+0
2.09461E+1, 2.94221E+0
2.09627E+1, 3.15215E+0
2.09793E+1, 3.38046E+0
2.09959E+1, 3.61533E+0
2.10125E+1, 3.86955E+0
2.10291E+1, 4.13590E+0
2.10456E+1, 4.41622E+0
2.10622E+1, 4.70182E+0
2.10788E+1, 5.00172E+0
2.10954E+1, 5.31559E+0
2.11120E+1, 5.63869E+0
2.11286E+1, 5.97970E+0
2.11452E+1, 6.32591E+0
2.11618E+1, 6.69013E+0
2.11784E+1, 7.05185E+0
2.11950E+1, 7.42731E+0
2.12116E+1, 7.79997E+0
2.12282E+1, 8.17254E+0
2.12448E+1, 8.53397E+0
2.12614E+1, 8.88368E+0
2.12780E+1, 9.22253E+0
2.12946E+1, 9.55026E+0
2.13112E+1, 9.86416E+0
2.13278E+1, 1.01550E+1
2.13444E+1, 1.04341E+1
2.13609E+1, 1.06942E+1
2.13775E+1, 1.09321E+1
2.13941E+1, 1.11360E+1
2.14107E+1, 1.13166E+1
2.14273E+1, 1.14630E+1
2.14439E+1, 1.15794E+1
2.14605E+1, 1.16620E+1
2.14771E+1, 1.17157E+1
2.14937E+1, 1.17355E+1
2.15103E+1, 1.17238E+1
2.15269E+1, 1.16937E+1
2.15435E+1, 1.16361E+1
2.15601E+1, 1.15488E+1
2.15767E+1, 1.14370E+1
2.15933E+1, 1.13132E+1
2.16099E+1, 1.11689E+1
2.16265E+1, 1.10137E+1
2.16431E+1, 1.08422E+1
2.16597E+1, 1.06539E+1
2.16762E+1, 1.04560E+1
2.16928E+1, 1.02486E+1
2.17094E+1, 1.00306E+1
2.17260E+1, 9.79905E+0
2.17426E+1, 9.56946E+0
2.17592E+1, 9.33683E+0
2.17758E+1, 9.09559E+0
2.17924E+1, 8.84210E+0
2.18090E+1, 8.59884E+0
2.18256E+1, 8.35715E+0
2.18422E+1, 8.11003E+0
2.18588E+1, 7.86853E+0
2.18754E+1, 7.62783E+0
2.18920E+1, 7.39613E+0
2.19086E+1, 7.17140E+0
2.19252E+1, 6.95426E+0
2.19418E+1, 6.72936E+0
2.19584E+1, 6.52054E+0
2.19750E+1, 6.31493E+0
2.19915E+1, 6.11784E+0
2.20081E+1, 5.92530E+0
2.20247E+1, 5.73813E+0
2.20413E+1, 5.54855E+0
2.20579E+1, 5.38131E+0
2.20745E+1, 5.22909E+0
2.20911E+1, 5.06399E+0
2.21077E+1, 4.92038E+0
2.21243E+1, 4.74579E+0
2.21409E+1, 4.61667E+0
2.21575E+1, 4.49352E+0
2.21741E+1, 4.38400E+0
2.21907E+1, 4.27344E+0
2.22073E+1, 4.16830E+0
2.22239E+1, 4.05084E+0
2.22405E+1, 3.95491E+0
2.22571E+1, 3.85570E+0
2.22737E+1, 3.77069E+0
2.22902E+1, 3.68065E+0
2.23068E+1, 3.60234E+0
2.23234E+1, 3.51809E+0
2.23400E+1, 3.43390E+0
2.23566E+1, 3.34758E+0
2.23732E+1, 3.26998E+0
2.23898E+1, 3.20400E+0
2.24064E+1, 3.12980E+0
2.24230E+1, 3.06517E+0
2.24396E+1, 2.98872E+0
2.24562E+1, 2.92894E+0
2.24728E+1, 2.85761E+0
2.24894E+1, 2.80793E+0
2.25060E+1, 2.75024E+0
2.25226E+1, 2.70381E+0
2.25392E+1, 2.64097E+0
2.25558E+1, 2.58627E+0
2.25724E+1, 2.52738E+0
2.25890E+1, 2.47316E+0
2.26055E+1, 2.42317E+0
2.26221E+1, 2.36550E+0
2.26387E+1, 2.32785E+0
2.26553E+1, 2.27216E+0
2.26719E+1, 2.23092E+0
2.26885E+1, 2.17362E+0
2.27051E+1, 2.14265E+0
2.27217E+1, 2.08977E+0
2.27383E+1, 2.05428E+0
2.27549E+1, 2.00845E+0
2.27715E+1, 1.96665E+0
2.27881E+1, 1.91387E+0
2.28047E+1, 1.87168E+0
2.28213E+1, 1.83047E+0
2.28379E+1, 1.79221E+0
2.28545E+1, 1.76045E+0
2.28711E+1, 1.71395E+0
2.28877E+1, 1.68149E+0
2.29043E+1, 1.63054E+0
2.29208E+1, 1.60733E+0
2.29374E+1, 1.56237E+0
2.29540E+1, 1.54510E+0
2.29706E+1, 1.49692E+0
2.29872E+1, 1.48163E+0
2.30038E+1, 1.44580E+0
2.30204E+1, 1.41652E+0
2.30370E+1, 1.38129E+0
2.30536E+1, 1.35080E+0
2.30702E+1, 1.32259E+0
2.30868E+1, 1.28508E+0
2.31034E+1, 1.27434E+0
2.31200E+1, 1.23766E+0
2.31366E+1, 1.22537E+0
2.31532E+1, 1.18600E+0
2.31698E+1, 1.17935E+0
2.31864E+1, 1.14325E+0
2.32030E+1, 1.13617E+0
2.32196E+1, 1.10309E+0
2.32361E+1, 1.09173E+0
2.32527E+1, 1.06748E+0
2.32693E+1, 1.04625E+0
2.32859E+1, 1.03349E+0
2.33025E+1, 1.00884E+0
2.33191E+1, 1.00060E+0
2.33357E+1, 9.89234E-1
2.33523E+1, 9.91607E-1
2.33689E+1, 9.58558E-1
2.33855E+1, 9.60133E-1
2.34021E+1, 9.34245E-1
2.34187E+1, 9.45585E-1
2.34353E+1, 9.24145E-1
2.34519E+1, 9.27499E-1
2.34685E+1, 9.07686E-1
2.34851E+1, 9.06219E-1
2.35017E+1, 8.96213E-1
2.35183E+1, 9.01282E-1
2.35349E+1, 9.06433E-1
2.35514E+1, 8.91137E-1
2.35680E+1, 9.08343E-1
2.35846E+1, 8.86593E-1
2.36012E+1, 9.17552E-1
2.36178E+1, 8.90830E-1
2.36344E+1, 9.22968E-1
2.36510E+1, 9.01759E-1
2.36676E+1, 9.27499E-1
2.36842E+1, 9.17937E-1
2.37008E+1, 9.33484E-1
2.37174E+1, 9.29700E-1
2.37340E+1, 9.41359E-1
2.37506E+1, 9.52782E-1
2.37672E+1, 9.64795E-1
2.37838E+1, 9.77832E-1
2.38004E+1, 9.64133E-1
2.38170E+1, 9.90778E-1
2.38336E+1, 9.79017E-1
2.38501E+1, 1.00781E+0
2.38667E+1, 9.92731E-1
2.38833E+1, 1.02402E+0
2.38999E+1, 1.00747E+0
2.39165E+1, 1.02806E+0
2.39331E+1, 1.03171E+0
2.39497E+1, 1.05646E+0
2.39663E+1, 1.05800E+0
2.39829E+1, 1.06958E+0
2.39995E+1, 1.07936E+0
2.40161E+1, 1.09098E+0
2.40327E+1, 1.12209E+0
2.40493E+1, 1.12755E+0
2.40659E+1, 1.16992E+0
2.40825E+1, 1.17038E+0
2.40991E+1, 1.22069E+0
2.41157E+1, 1.23953E+0
2.41323E+1, 1.29837E+0
2.41489E+1, 1.32282E+0
2.41654E+1, 1.38675E+0
2.41820E+1, 1.44091E+0
2.41986E+1, 1.50800E+0
2.42152E+1, 1.57695E+0
2.42318E+1, 1.64098E+0
2.42484E+1, 1.73419E+0
2.42650E+1, 1.80874E+0
2.42816E+1, 1.92064E+0
2.42982E+1, 2.01614E+0
2.43148E+1, 2.14208E+0
2.43314E+1, 2.24288E+0
2.43480E+1, 2.38314E+0
2.43646E+1, 2.51021E+0
2.43812E+1, 2.66487E+0
2.43978E+1, 2.80273E+0
2.44144E+1, 2.97166E+0
2.44310E+1, 3.13525E+0
2.44476E+1, 3.31179E+0
2.44642E+1, 3.49210E+0
2.44807E+1, 3.67584E+0
2.44973E+1, 3.87470E+0
2.45139E+1, 4.06161E+0
2.45305E+1, 4.27223E+0
2.45471E+1, 4.47270E+0
2.45637E+1, 4.69828E+0
2.45803E+1, 4.89328E+0
2.45969E+1, 5.11467E+0
2.46135E+1, 5.32873E+0
2.46301E+1, 5.56408E+0
2.46467E+1, 5.77345E+0
2.46633E+1, 5.98221E+0
2.46799E+1, 6.18635E+0
2.46965E+1, 6.38138E+0
2.47131E+1, 6.57861E+0
2.47297E+1, 6.75176E+0
2.47463E+1, 6.93455E+0
2.47629E+1, 7.08753E+0
2.47795E+1, 7.24672E+0
2.47960E+1, 7.37182E+0
2.48126E+1, 7.51233E+0
2.48292E+1, 7.61635E+0
2.48458E+1, 7.72663E+0
2.48624E+1, 7.80449E+0
2.48790E+1, 7.87459E+0
2.48956E+1, 7.92319E+0
2.49122E+1, 7.95790E+0
2.49288E+1, 7.96590E+0
2.49454E+1, 7.95433E+0
2.49620E+1, 7.94753E+0
2.49786E+1, 7.91105E+0
2.49952E+1, 7.87545E+0
2.50118E+1, 7.80393E+0
2.50284E+1, 7.74274E+0
2.50450E+1, 7.65590E+0
2.50616E+1, 7.56868E+0
2.50782E+1, 7.45832E+0
2.50948E+1, 7.34360E+0
2.51113E+1, 7.21592E+0
2.51279E+1, 7.08568E+0
2.51445E+1, 6.94373E+0
2.51611E+1, 6.78979E+0
2.51777E+1, 6.64780E+0
2.51943E+1, 6.49545E+0
2.52109E+1, 6.34957E+0
2.52275E+1, 6.18734E+0
2.52441E+1, 6.03881E+0
2.52607E+1, 5.89137E+0
2.52773E+1, 5.75427E+0
2.52939E+1, 5.61386E+0
2.53105E+1, 5.48220E+0
2.53271E+1, 5.36074E+0
2.53437E+1, 5.24667E+0
2.53603E+1, 5.13875E+0
2.53769E+1, 5.04336E+0
2.53935E+1, 4.96666E+0
2.54100E+1, 4.89391E+0
2.54266E+1, 4.83742E+0
2.54432E+1, 4.79381E+0
2.54598E+1, 4.77591E+0
2.54764E+1, 4.76944E+0
2.54930E+1, 4.78413E+0
2.55096E+1, 4.81025E+0
2.55262E+1, 4.85045E+0
2.55428E+1, 4.90512E+0
2.55594E+1, 4.97753E+0
2.55760E+1, 5.08475E+0
2.55926E+1, 5.20525E+0
2.56092E+1, 5.34705E+0
2.56258E+1, 5.49647E+0
2.56424E+1, 5.67617E+0
2.56590E+1, 5.87764E+0
2.56756E+1, 6.09610E+0
2.56922E+1, 6.33189E+0
2.57088E+1, 6.59163E+0
2.57253E+1, 6.87133E+0
2.57419E+1, 7.16491E+0
2.57585E+1, 7.48533E+0
2.57751E+1, 7.81235E+0
2.57917E+1, 8.16185E+0
2.58083E+1, 8.52092E+0
2.58249E+1, 8.91394E+0
2.58415E+1, 9.31115E+0
2.58581E+1, 9.72719E+0
2.58747E+1, 1.01473E+1
2.58913E+1, 1.05782E+1
2.59079E+1, 1.10179E+1
2.59245E+1, 1.14693E+1
2.59411E+1, 1.19283E+1
2.59577E+1, 1.23829E+1
2.59743E+1, 1.28510E+1
2.59909E+1, 1.33078E+1
2.60075E+1, 1.37776E+1
2.60241E+1, 1.42303E+1
2.60406E+1, 1.46892E+1
2.60572E+1, 1.51333E+1
2.60738E+1, 1.55831E+1
2.60904E+1, 1.60055E+1
2.61070E+1, 1.64289E+1
2.61236E+1, 1.68289E+1
2.61402E+1, 1.72153E+1
2.61568E+1, 1.75899E+1
2.61734E+1, 1.79345E+1
2.61900E+1, 1.82730E+1
2.62066E+1, 1.85825E+1
2.62232E+1, 1.88892E+1
2.62398E+1, 1.91603E+1
2.62564E+1, 1.94161E+1
2.62730E+1, 1.96313E+1
2.62896E+1, 1.98392E+1
2.63062E+1, 2.00044E+1
2.63228E+1, 2.01517E+1
2.63394E+1, 2.02682E+1
2.63559E+1, 2.03659E+1
2.63725E+1, 2.04393E+1
2.63891E+1, 2.04805E+1
2.64057E+1, 2.05147E+1
2.64223E+1, 2.05004E+1
2.64389E+1, 2.04895E+1
2.64555E+1, 2.04236E+1
2.64721E+1, 2.03638E+1
2.64887E+1, 2.02549E+1
2.65053E+1, 2.01351E+1
2.65219E+1, 1.99847E+1
2.65385E+1, 1.98180E+1
2.65551E+1, 1.96163E+1
2.65717E+1, 1.94048E+1
2.65883E+1, 1.91685E+1
2.66049E+1, 1.89135E+1
2.66215E+1, 1.86493E+1
2.66381E+1, 1.83618E+1
2.66547E+1, 1.80618E+1
2.66712E+1, 1.77323E+1
2.66878E+1, 1.74296E+1
2.67044E+1, 1.70798E+1
2.67210E+1, 1.67459E+1
2.67376E+1, 1.63679E+1
2.67542E+1, 1.60062E+1
2.67708E+1, 1.56287E+1
2.67874E+1, 1.52452E+1
2.68040E+1, 1.48478E+1
2.68206E+1, 1.44523E+1
2.68372E+1, 1.40560E+1
2.68538E+1, 1.36442E+1
2.68704E+1, 1.32613E+1
2.68870E+1, 1.28427E+1
2.69036E+1, 1.24579E+1
2.69202E+1, 1.20336E+1
2.69368E+1, 1.16556E+1
2.69534E+1, 1.12387E+1
2.69700E+1, 1.08612E+1
2.69865E+1, 1.04624E+1
2.70031E+1, 1.00819E+1
2.70197E+1, 9.69460E+0
2.70363E+1, 9.32563E+0
2.70529E+1, 8.95383E+0
2.70695E+1, 8.57806E+0
2.70861E+1, 8.23812E+0
2.71027E+1, 7.87864E+0
2.71193E+1, 7.55982E+0
2.71359E+1, 7.20751E+0
2.71525E+1, 6.90185E+0
2.71691E+1, 6.57698E+0
2.71857E+1, 6.28381E+0
2.72023E+1, 5.98250E+0
2.72189E+1, 5.71511E+0
2.72355E+1, 5.43673E+0
2.72521E+1, 5.17782E+0
2.72687E+1, 4.92251E+0
2.72852E+1, 4.66814E+0
2.73018E+1, 4.44335E+0
2.73184E+1, 4.21025E+0
2.73350E+1, 4.00264E+0
2.73516E+1, 3.78208E+0
2.73682E+1, 3.60493E+0
2.73848E+1, 3.40468E+0
2.74014E+1, 3.25549E+0
2.74180E+1, 3.06483E+0
2.74346E+1, 2.93535E+0
2.74512E+1, 2.76801E+0
2.74678E+1, 2.63546E+0
2.74844E+1, 2.49718E+0
2.75010E+1, 2.35930E+0
2.75176E+1, 2.23670E+0
2.75342E+1, 2.11916E+0
2.75508E+1, 2.01793E+0
2.75674E+1, 1.90332E+0
2.75840E+1, 1.82044E+0
2.76005E+1, 1.71192E+0
2.76171E+1, 1.63729E+0
2.76337E+1, 1.53774E+0
2.76503E+1, 1.46318E+0
2.76669E+1, 1.37715E+0
2.76835E+1, 1.31324E+0
2.77001E+1, 1.23643E+0
2.77167E+1, 1.16893E+0
2.77333E+1, 1.11878E+0
2.77499E+1, 1.05778E+0
2.77665E+1, 1.00933E+0
2.77831E+1, 9.52034E-1
2.77997E+1, 9.21115E-1
2.78163E+1, 8.52719E-1
2.78329E+1, 8.24367E-1
2.78495E+1, 7.72344E-1
2.78661E+1, 7.46702E-1
2.78827E+1, 7.01695E-1
2.78993E+1, 6.77118E-1
2.79158E+1, 6.45797E-1
2.79324E+1, 6.34144E-1
2.79490E+1, 6.08910E-1
2.79656E+1, 5.91338E-1
2.79822E+1, 5.70727E-1
2.79988E+1, 5.46057E-1
2.80154E+1, 5.33158E-1
2.80320E+1, 5.00403E-1
2.80486E+1, 4.90322E-1
2.80652E+1, 4.61762E-1
2.80818E+1, 4.52191E-1
2.80984E+1, 4.21738E-1
2.81150E+1, 4.11552E-1
2.81316E+1, 3.79940E-1
2.81482E+1, 3.53619E-1
2.81648E+1, 3.30345E-1
2.81814E+1, 3.09658E-1
2.81980E+1, 2.90855E-1
2.82146E+1, 2.63203E-1
2.82311E+1, 2.40946E-1
2.82477E+1, 2.11737E-1
2.82643E+1, 1.92967E-1
2.82809E+1, 1.59967E-1
2.82975E+1, 1.50473E-1
2.83141E+1, 1.23190E-1
2.83307E+1, 1.10626E-1
2.83473E+1, 8.62668E-2
2.83639E+1, 7.99595E-2
2.83805E+1, 6.20569E-2
2.83971E+1, 4.86585E-2
2.84137E+1, 3.40683E-2
2.84303E+1, 2.16933E-2
2.84469E+1, 1.10431E-2
2.84635E+1, 2.23290E-3
2.84801E+1, 0.00000E+0
##END=$$ End of the data block
