##TITLE=Spectrum
##JCAMP-DX=5.00 $$ chemotion-converter-app (1.1.0)
##DATA TYPE=SIZE EXCLUSION CHROMATOGRAPHY
##DATA CLASS=XYPOINTS
##ORIGIN=
##OWNER=
##XUNITS=MILLILITERS
##YUNITS=ARBITRARY UNITS
##LABEL=Vial  32: MS-8b - 1
##COMMENTS=C:\GPC Data\Processed Measurements\Birgit Huber\6_Inj_ Vial  32  MS-8b - 1.TXT
##MN= 1.470E+2
##MW= 1.771E+2
##D= 1.205E+0
##MP= 1.389E+2
##DETEC1=I1: RID 1, RI Signal
##DETEC2=I1: MWD 1, Signal A
##DETEC3=I1: MWD 1, Signal B
##COL1=PSS SDV 5µm Guard
##COL2=PSS SDV 5µm 1000Å
##COL3=PSS SDV 5µm 100 000Å
##IN_VOL=100.000
##ELUENT=THF
##FLOW=  1.000
##TEMPERATURE= 35.000
##DATE=09.02.23
##TIME=12:43:16
##NO_DEC=1
##SOFTWARE=WINGPC
##VERSION=8#1
##OPERATOR=GPC Admin
##FIRSTX=2.05030E+1
##LASTX=2.44930E+1
##MINX=20.503
##MAXX=24.493
##MINY=0.00673066
##MAXY=7.38629
##NPOINTS=242
##FIRSTY=6.73066E-3
##XUNITS=MILLILITERS
##YUNITS=ARBITRARY UNITS
##XYPOINTS=(XY..XY)
2.05030E+1, 6.73066E-3
2.05195E+1, 8.83322E-3
2.05361E+1, 1.09349E-2
2.05527E+1, 1.26521E-2
2.05692E+1, 1.42101E-2
2.05858E+1, 1.55403E-2
2.06023E+1, 1.63660E-2
2.06189E+1, 1.72477E-2
2.06354E+1, 1.81910E-2
2.06520E+1, 1.91809E-2
2.06686E+1, 1.99649E-2
2.06851E+1, 2.07058E-2
2.07017E+1, 2.15163E-2
2.07182E+1, 2.24082E-2
2.07348E+1, 2.42562E-2
2.07513E+1, 2.65246E-2
2.07679E+1, 2.88174E-2
2.07844E+1, 3.14994E-2
2.08010E+1, 3.46241E-2
2.08176E+1, 3.71501E-2
2.08341E+1, 4.02489E-2
2.08507E+1, 4.31029E-2
2.08672E+1, 4.53191E-2
2.08838E+1, 4.72163E-2
2.09003E+1, 4.90211E-2
2.09169E+1, 5.09295E-2
2.09335E+1, 5.22899E-2
2.09500E+1, 5.38935E-2
2.09666E+1, 5.58781E-2
2.09831E+1, 5.80063E-2
2.09997E+1, 6.00392E-2
2.10162E+1, 6.22343E-2
2.10328E+1, 6.42901E-2
2.10493E+1, 6.66247E-2
2.10659E+1, 6.92985E-2
2.10825E+1, 7.19057E-2
2.10990E+1, 7.44069E-2
2.11156E+1, 7.70465E-2
2.11321E+1, 7.93013E-2
2.11487E+1, 8.16350E-2
2.11652E+1, 8.44026E-2
2.11818E+1, 8.70957E-2
2.11984E+1, 9.04312E-2
2.12149E+1, 9.40935E-2
2.12315E+1, 9.78787E-2
2.12480E+1, 1.01114E-1
2.12646E+1, 1.04635E-1
2.12811E+1, 1.08960E-1
2.12977E+1, 1.13001E-1
2.13142E+1, 1.18378E-1
2.13308E+1, 1.24510E-1
2.13474E+1, 1.30409E-1
2.13639E+1, 1.37435E-1
2.13805E+1, 1.46605E-1
2.13970E+1, 1.55710E-1
2.14136E+1, 1.67484E-1
2.14301E+1, 1.80997E-1
2.14467E+1, 1.93442E-1
2.14632E+1, 2.06648E-1
2.14798E+1, 2.22825E-1
2.14964E+1, 2.38434E-1
2.15129E+1, 2.55431E-1
2.15295E+1, 2.75003E-1
2.15460E+1, 2.95841E-1
2.15626E+1, 3.14989E-1
2.15791E+1, 3.33478E-1
2.15957E+1, 3.56893E-1
2.16123E+1, 3.78374E-1
2.16288E+1, 3.96857E-1
2.16454E+1, 4.17525E-1
2.16619E+1, 4.35431E-1
2.16785E+1, 4.52431E-1
2.16950E+1, 4.69765E-1
2.17116E+1, 4.83299E-1
2.17281E+1, 4.95814E-1
2.17447E+1, 5.10045E-1
2.17613E+1, 5.23492E-1
2.17778E+1, 5.35106E-1
2.17944E+1, 5.48137E-1
2.18109E+1, 5.65117E-1
2.18275E+1, 5.82567E-1
2.18440E+1, 5.98702E-1
2.18606E+1, 6.18744E-1
2.18772E+1, 6.39553E-1
2.18937E+1, 6.61528E-1
2.19103E+1, 6.89944E-1
2.19268E+1, 7.19499E-1
2.19434E+1, 7.51094E-1
2.19599E+1, 7.89413E-1
2.19765E+1, 8.22062E-1
2.19930E+1, 8.51282E-1
2.20096E+1, 8.82761E-1
2.20262E+1, 9.11881E-1
2.20427E+1, 9.35126E-1
2.20593E+1, 9.60143E-1
2.20758E+1, 9.83488E-1
2.20924E+1, 9.97837E-1
2.21089E+1, 1.01021E+0
2.21255E+1, 1.02224E+0
2.21421E+1, 1.03237E+0
2.21586E+1, 1.03998E+0
2.21752E+1, 1.04784E+0
2.21917E+1, 1.05318E+0
2.22083E+1, 1.05660E+0
2.22248E+1, 1.05942E+0
2.22414E+1, 1.06142E+0
2.22579E+1, 1.06183E+0
2.22745E+1, 1.06042E+0
2.22911E+1, 1.05737E+0
2.23076E+1, 1.05305E+0
2.23242E+1, 1.04605E+0
2.23407E+1, 1.03632E+0
2.23573E+1, 1.02783E+0
2.23738E+1, 1.01717E+0
2.23904E+1, 1.00510E+0
2.24070E+1, 9.95225E-1
2.24235E+1, 9.84617E-1
2.24401E+1, 9.72248E-1
2.24566E+1, 9.64113E-1
2.24732E+1, 9.60313E-1
2.24897E+1, 9.61010E-1
2.25063E+1, 9.67965E-1
2.25228E+1, 9.82594E-1
2.25394E+1, 1.01205E+0
2.25560E+1, 1.05677E+0
2.25725E+1, 1.11328E+0
2.25891E+1, 1.21593E+0
2.26056E+1, 1.32985E+0
2.26222E+1, 1.45506E+0
2.26387E+1, 1.62370E+0
2.26553E+1, 1.83577E+0
2.26719E+1, 2.03480E+0
2.26884E+1, 2.26575E+0
2.27050E+1, 2.63608E+0
2.27215E+1, 2.99648E+0
2.27381E+1, 3.31513E+0
2.27546E+1, 3.70454E+0
2.27712E+1, 4.14005E+0
2.27877E+1, 4.49026E+0
2.28043E+1, 4.90314E+0
2.28209E+1, 5.43437E+0
2.28374E+1, 5.76046E+0
2.28540E+1, 6.10968E+0
2.28705E+1, 6.47497E+0
2.28871E+1, 6.77226E+0
2.29036E+1, 6.99502E+0
2.29202E+1, 7.18925E+0
2.29368E+1, 7.29307E+0
2.29533E+1, 7.36026E+0
2.29699E+1, 7.38629E+0
2.29864E+1, 7.35205E+0
2.30030E+1, 7.28810E+0
2.30195E+1, 7.16583E+0
2.30361E+1, 6.99358E+0
2.30526E+1, 6.83079E+0
2.30692E+1, 6.55133E+0
2.30858E+1, 6.28380E+0
2.31023E+1, 6.04885E+0
2.31189E+1, 5.76343E+0
2.31354E+1, 5.44657E+0
2.31520E+1, 5.19278E+0
2.31685E+1, 4.90574E+0
2.31851E+1, 4.58886E+0
2.32017E+1, 4.28813E+0
2.32182E+1, 4.01139E+0
2.32348E+1, 3.72580E+0
2.32513E+1, 3.50101E+0
2.32679E+1, 3.27519E+0
2.32844E+1, 3.02758E+0
2.33010E+1, 2.84540E+0
2.33175E+1, 2.64563E+0
2.33341E+1, 2.45937E+0
2.33507E+1, 2.28385E+0
2.33672E+1, 2.15509E+0
2.33838E+1, 2.03098E+0
2.34003E+1, 1.90599E+0
2.34169E+1, 1.80368E+0
2.34334E+1, 1.72595E+0
2.34500E+1, 1.66061E+0
2.34666E+1, 1.62128E+0
2.34831E+1, 1.59585E+0
2.34997E+1, 1.59063E+0
2.35162E+1, 1.60377E+0
2.35328E+1, 1.63672E+0
2.35493E+1, 1.69239E+0
2.35659E+1, 1.75308E+0
2.35824E+1, 1.83795E+0
2.35990E+1, 1.93844E+0
2.36156E+1, 2.05404E+0
2.36321E+1, 2.15896E+0
2.36487E+1, 2.27660E+0
2.36652E+1, 2.43211E+0
2.36818E+1, 2.55780E+0
2.36983E+1, 2.67824E+0
2.37149E+1, 2.80165E+0
2.37315E+1, 2.90018E+0
2.37480E+1, 2.98703E+0
2.37646E+1, 3.07057E+0
2.37811E+1, 3.12889E+0
2.37977E+1, 3.17419E+0
2.38142E+1, 3.20433E+0
2.38308E+1, 3.21387E+0
2.38473E+1, 3.20622E+0
2.38639E+1, 3.18262E+0
2.38805E+1, 3.14894E+0
2.38970E+1, 3.10799E+0
2.39136E+1, 3.05202E+0
2.39301E+1, 2.97947E+0
2.39467E+1, 2.89732E+0
2.39632E+1, 2.81248E+0
2.39798E+1, 2.71957E+0
2.39964E+1, 2.63349E+0
2.40129E+1, 2.53292E+0
2.40295E+1, 2.42307E+0
2.40460E+1, 2.33149E+0
2.40626E+1, 2.24311E+0
2.40791E+1, 2.14199E+0
2.40957E+1, 2.03851E+0
2.41122E+1, 1.94266E+0
2.41288E+1, 1.84780E+0
2.41454E+1, 1.76161E+0
2.41619E+1, 1.68155E+0
2.41785E+1, 1.59109E+0
2.41950E+1, 1.49906E+0
2.42116E+1, 1.42005E+0
2.42281E+1, 1.34390E+0
2.42447E+1, 1.25846E+0
2.42613E+1, 1.17991E+0
2.42778E+1, 1.10656E+0
2.42944E+1, 1.01297E+0
2.43109E+1, 9.21140E-1
2.43275E+1, 8.43683E-1
2.43440E+1, 7.54514E-1
2.43606E+1, 6.70282E-1
2.43771E+1, 5.93509E-1
2.43937E+1, 5.04220E-1
2.44103E+1, 4.19074E-1
2.44268E+1, 3.38422E-1
2.44434E+1, 2.44902E-1
2.44599E+1, 1.66721E-1
2.44765E+1, 1.02303E-1
2.44930E+1, 3.90132E-2
##END=$$ End of the data block
