##TITLE=Spectrum
##JCAMP-DX=5.00 $$ chemotion-converter-app (1.1.0)
##DATA TYPE=SIZE EXCLUSION CHROMATOGRAPHY
##DATA CLASS=XYPOINTS
##ORIGIN=
##OWNER=
##XUNITS=G/MOL
##YUNITS=ARBITRARY UNITS
##NO_DEC=1
##SOFTWARE=WINGPC
##VERSION=8#1
##FIRSTX=2.16801E+4
##LASTX=2.04963E+5
##MINX=21680.1
##MAXX=204963.0
##MINY=0.0
##MAXY=3.27842
##NPOINTS=273
##FIRSTY=0.00000E+0
##XUNITS=G/MOL
##YUNITS=ARBITRARY UNITS
##XYPOINTS=(XY..XY)
2.16801E+4, 0.00000E+0
2.18598E+4, 1.36268E-3
2.20411E+4, 2.46252E-3
2.22239E+4, 3.94682E-3
2.24082E+4, 5.20158E-3
2.25941E+4, 6.63157E-3
2.27814E+4, 8.45002E-3
2.29704E+4, 9.73357E-3
2.31609E+4, 1.15296E-2
2.33529E+4, 1.31000E-2
2.35466E+4, 1.51769E-2
2.37419E+4, 1.72769E-2
2.39388E+4, 2.00280E-2
2.41373E+4, 2.26030E-2
2.43375E+4, 2.61087E-2
2.45393E+4, 2.90355E-2
2.47428E+4, 3.21879E-2
2.49480E+4, 3.61210E-2
2.51549E+4, 3.95240E-2
2.53635E+4, 4.41175E-2
2.55739E+4, 4.83423E-2
2.57860E+4, 5.35168E-2
2.59998E+4, 5.82176E-2
2.62154E+4, 6.44115E-2
2.64328E+4, 6.91342E-2
2.66521E+4, 7.58993E-2
2.68731E+4, 8.12807E-2
2.70960E+4, 8.83291E-2
2.73207E+4, 9.56104E-2
2.75472E+4, 1.02421E-1
2.77757E+4, 1.11160E-1
2.80060E+4, 1.18785E-1
2.82383E+4, 1.28622E-1
2.84725E+4, 1.36932E-1
2.87086E+4, 1.46876E-1
2.89467E+4, 1.56689E-1
2.91868E+4, 1.67795E-1
2.94288E+4, 1.78323E-1
2.96729E+4, 1.90786E-1
2.99189E+4, 2.04413E-1
3.01671E+4, 2.15502E-1
3.04172E+4, 2.30869E-1
3.06695E+4, 2.41541E-1
3.09238E+4, 2.59736E-1
3.11803E+4, 2.72009E-1
3.14389E+4, 2.90940E-1
3.16996E+4, 3.09022E-1
3.19625E+4, 3.24276E-1
3.22276E+4, 3.44933E-1
3.24948E+4, 3.61937E-1
3.27643E+4, 3.84564E-1
3.30360E+4, 4.04120E-1
3.33100E+4, 4.27378E-1
3.35863E+4, 4.49611E-1
3.38648E+4, 4.77991E-1
3.41456E+4, 5.01796E-1
3.44288E+4, 5.29911E-1
3.47143E+4, 5.57946E-1
3.50022E+4, 5.85549E-1
3.52925E+4, 6.19953E-1
3.55852E+4, 6.47746E-1
3.58803E+4, 6.94323E-1
3.61779E+4, 7.23173E-1
3.64779E+4, 7.63617E-1
3.67804E+4, 8.04407E-1
3.70855E+4, 8.41235E-1
3.73930E+4, 8.90794E-1
3.77031E+4, 9.30210E-1
3.80158E+4, 9.88301E-1
3.83311E+4, 1.04033E+0
3.86489E+4, 1.09474E+0
3.89695E+4, 1.15351E+0
3.92926E+4, 1.20932E+0
3.96185E+4, 1.27490E+0
3.99471E+4, 1.33680E+0
4.02784E+4, 1.41100E+0
4.06124E+4, 1.47650E+0
4.09492E+4, 1.56048E+0
4.12888E+4, 1.63171E+0
4.16312E+4, 1.71503E+0
4.19765E+4, 1.79437E+0
4.23246E+4, 1.87544E+0
4.26756E+4, 1.96163E+0
4.30295E+4, 2.03841E+0
4.33864E+4, 2.12938E+0
4.37462E+4, 2.20506E+0
4.41090E+4, 2.30515E+0
4.44748E+4, 2.38278E+0
4.48436E+4, 2.45970E+0
4.52155E+4, 2.54482E+0
4.55905E+4, 2.60857E+0
4.59686E+4, 2.69413E+0
4.63498E+4, 2.74996E+0
4.67342E+4, 2.82810E+0
4.71217E+4, 2.89264E+0
4.75125E+4, 2.94202E+0
4.79066E+4, 3.00476E+0
4.83039E+4, 3.04007E+0
4.87044E+4, 3.09631E+0
4.91084E+4, 3.12489E+0
4.95156E+4, 3.16612E+0
4.99263E+4, 3.19298E+0
5.03403E+4, 3.21702E+0
5.07578E+4, 3.24344E+0
5.11787E+4, 3.25328E+0
5.16032E+4, 3.26950E+0
5.20311E+4, 3.27432E+0
5.24626E+4, 3.27842E+0
5.28977E+4, 3.27795E+0
5.33364E+4, 3.27476E+0
5.37787E+4, 3.26694E+0
5.42247E+4, 3.25681E+0
5.46744E+4, 3.24156E+0
5.51278E+4, 3.22493E+0
5.55850E+4, 3.20689E+0
5.60460E+4, 3.18234E+0
5.65108E+4, 3.16216E+0
5.69794E+4, 3.13101E+0
5.74520E+4, 3.10736E+0
5.79284E+4, 3.07108E+0
5.84088E+4, 3.03537E+0
5.88932E+4, 3.00636E+0
5.93816E+4, 2.96211E+0
5.98741E+4, 2.93359E+0
6.03707E+4, 2.88378E+0
6.08713E+4, 2.84941E+0
6.13761E+4, 2.80397E+0
6.18851E+4, 2.75960E+0
6.23984E+4, 2.71764E+0
6.29158E+4, 2.65743E+0
6.34376E+4, 2.62254E+0
6.39637E+4, 2.56294E+0
6.44942E+4, 2.51754E+0
6.50290E+4, 2.46955E+0
6.55683E+4, 2.41158E+0
6.61121E+4, 2.37007E+0
6.66604E+4, 2.30701E+0
6.72132E+4, 2.25724E+0
6.77706E+4, 2.19895E+0
6.83326E+4, 2.14384E+0
6.88993E+4, 2.09609E+0
6.94707E+4, 2.03249E+0
7.00469E+4, 1.98880E+0
7.06278E+4, 1.92424E+0
7.12135E+4, 1.87790E+0
7.18041E+4, 1.81957E+0
7.23996E+4, 1.75789E+0
7.30000E+4, 1.71454E+0
7.36054E+4, 1.65299E+0
7.42158E+4, 1.61019E+0
7.48313E+4, 1.55280E+0
7.54519E+4, 1.50409E+0
7.60776E+4, 1.45799E+0
7.67085E+4, 1.40850E+0
7.73447E+4, 1.36617E+0
7.79861E+4, 1.31588E+0
7.86329E+4, 1.27373E+0
7.92850E+4, 1.23472E+0
7.99425E+4, 1.19349E+0
8.06055E+4, 1.15871E+0
8.12740E+4, 1.12325E+0
8.19480E+4, 1.08966E+0
8.26276E+4, 1.05799E+0
8.33128E+4, 1.02494E+0
8.40037E+4, 1.00164E+0
8.47004E+4, 9.76560E-1
8.54028E+4, 9.53483E-1
8.61111E+4, 9.34958E-1
8.68252E+4, 9.13430E-1
8.75453E+4, 8.99086E-1
8.82713E+4, 8.80023E-1
8.90034E+4, 8.65595E-1
8.97415E+4, 8.54063E-1
9.04857E+4, 8.41964E-1
9.12361E+4, 8.35748E-1
9.19928E+4, 8.27819E-1
9.27557E+4, 8.23373E-1
9.35249E+4, 8.17194E-1
9.43005E+4, 8.12247E-1
9.50826E+4, 8.07712E-1
9.58711E+4, 8.02806E-1
9.66662E+4, 7.99580E-1
9.74679E+4, 7.95506E-1
9.82762E+4, 7.91547E-1
9.90912E+4, 7.87287E-1
9.99130E+4, 7.82099E-1
1.00742E+5, 7.76888E-1
1.01577E+5, 7.70843E-1
1.02419E+5, 7.63785E-1
1.03269E+5, 7.56275E-1
1.04125E+5, 7.46814E-1
1.04989E+5, 7.38217E-1
1.05859E+5, 7.28490E-1
1.06737E+5, 7.16398E-1
1.07623E+5, 7.06940E-1
1.08515E+5, 6.91186E-1
1.09415E+5, 6.81046E-1
1.10322E+5, 6.63641E-1
1.11237E+5, 6.46636E-1
1.12160E+5, 6.33275E-1
1.13090E+5, 6.12446E-1
1.14028E+5, 5.96737E-1
1.14974E+5, 5.74883E-1
1.15927E+5, 5.55325E-1
1.16888E+5, 5.36335E-1
1.17858E+5, 5.15816E-1
1.18835E+5, 4.97452E-1
1.19821E+5, 4.77218E-1
1.20814E+5, 4.55834E-1
1.21816E+5, 4.40651E-1
1.22827E+5, 4.18820E-1
1.23845E+5, 4.03033E-1
1.24872E+5, 3.86565E-1
1.25908E+5, 3.68216E-1
1.26952E+5, 3.55725E-1
1.28005E+5, 3.37769E-1
1.29066E+5, 3.23891E-1
1.30137E+5, 3.09224E-1
1.31216E+5, 2.95605E-1
1.32304E+5, 2.84089E-1
1.33401E+5, 2.71400E-1
1.34508E+5, 2.60275E-1
1.35623E+5, 2.49670E-1
1.36748E+5, 2.38258E-1
1.37882E+5, 2.29212E-1
1.39026E+5, 2.17807E-1
1.40179E+5, 2.07578E-1
1.41341E+5, 2.00380E-1
1.42513E+5, 1.89080E-1
1.43695E+5, 1.83449E-1
1.44887E+5, 1.73262E-1
1.46088E+5, 1.66293E-1
1.47300E+5, 1.58824E-1
1.48521E+5, 1.50950E-1
1.49753E+5, 1.44068E-1
1.50995E+5, 1.35933E-1
1.52247E+5, 1.28475E-1
1.53510E+5, 1.22557E-1
1.54783E+5, 1.15300E-1
1.56067E+5, 1.09207E-1
1.57361E+5, 1.03372E-1
1.58666E+5, 9.63760E-2
1.59982E+5, 9.19963E-2
1.61309E+5, 8.57579E-2
1.62646E+5, 8.10297E-2
1.63995E+5, 7.64570E-2
1.65355E+5, 7.10647E-2
1.66727E+5, 6.66037E-2
1.68109E+5, 6.18480E-2
1.69503E+5, 5.76128E-2
1.70909E+5, 5.42374E-2
1.72326E+5, 5.00230E-2
1.73756E+5, 4.67308E-2
1.75197E+5, 4.26346E-2
1.76649E+5, 3.82933E-2
1.78114E+5, 3.60319E-2
1.79592E+5, 3.21038E-2
1.81081E+5, 2.97536E-2
1.82583E+5, 2.67613E-2
1.84097E+5, 2.40802E-2
1.85624E+5, 2.17616E-2
1.87163E+5, 1.91237E-2
1.88715E+5, 1.67268E-2
1.90280E+5, 1.50054E-2
1.91858E+5, 1.24388E-2
1.93449E+5, 1.09768E-2
1.95054E+5, 9.05009E-3
1.96671E+5, 7.37195E-3
1.98302E+5, 6.01515E-3
1.99947E+5, 4.36228E-3
2.01605E+5, 2.97551E-3
2.03277E+5, 1.45481E-3
2.04963E+5, 0.00000E+0
##END=$$ End of the data block
